File: mohanta_2013/no_buffer/raman/curve_total_fit.dat
497.553,1.2856
497.953,1.28604
498.353,1.2865
498.753,1.28698
499.153,1.28747
499.553,1.28798
499.953,1.2885
500.353,1.28904
500.753,1.2896
501.153,1.29017
501.553,1.29076
501.953,1.29136
502.353,1.29198
502.753,1.29262
503.153,1.29328
503.553,1.29395
503.953,1.29464
504.353,1.29535
504.753,1.29607
505.153,1.29682
505.553,1.29758
505.953,1.29836
506.353,1.29915
506.753,1.29996
507.153,1.3008
507.553,1.30164
507.953,1.30251
508.353,1.30339
508.753,1.30429
509.153,1.30521
509.553,1.30614
509.953,1.30709
510.353,1.30805
510.753,1.30903
511.153,1.31003
511.553,1.31104
511.953,1.31207
512.353,1.31311
512.753,1.31416
513.153,1.31523
513.553,1.31631
513.953,1.3174
514.353,1.3185
514.753,1.31962
515.153,1.32075
515.553,1.32188
515.953,1.32303
516.353,1.32418
516.753,1.32535
517.153,1.32652
517.553,1.32769
517.953,1.32887
518.353,1.33006
518.753,1.33125
519.153,1.33245
519.553,1.33365
519.953,1.33484
520.353,1.33604
520.753,1.33724
521.153,1.33844
521.553,1.33964
521.953,1.34084
522.353,1.34203
522.753,1.34322
523.153,1.3444
523.553,1.34557
523.953,1.34674
524.353,1.34791
524.753,1.34906
525.153,1.3502
525.553,1.35134
525.953,1.35246
526.353,1.35357
526.753,1.35468
527.153,1.35576
527.553,1.35684
527.953,1.3579
528.353,1.35895
528.753,1.35998
529.153,1.361
529.553,1.36201
529.953,1.363
530.353,1.36398
530.753,1.36494
531.153,1.36589
531.553,1.36683
531.953,1.36775
532.353,1.36866
532.753,1.36956
533.153,1.37045
533.553,1.37132
533.953,1.37219
534.353,1.37306
534.753,1.37391
535.153,1.37476
535.553,1.37561
535.953,1.37646
536.353,1.37731
536.753,1.37816
537.153,1.37902
537.553,1.37989
537.953,1.38077
538.353,1.38166
538.753,1.38257
539.153,1.3835
539.553,1.38446
539.953,1.38544
540.353,1.38641
540.753,1.3873
541.153,1.38813
541.553,1.38888
541.953,1.38957
542.353,1.39021
542.753,1.39081
543.153,1.39136
543.553,1.39189
543.953,1.39239
544.353,1.39288
544.753,1.39337
545.153,1.39387
545.553,1.39439
545.953,1.39493
546.353,1.39552
546.753,1.39615
547.153,1.39684
547.553,1.39761
547.953,1.39845
548.353,1.39939
548.753,1.40042
549.153,1.40155
549.553,1.40281
549.953,1.40418
550.353,1.40568
550.753,1.40732
551.153,1.40909
551.553,1.41101
551.953,1.41307
552.353,1.41528
552.753,1.41764
553.153,1.42015
553.553,1.42281
553.953,1.42561
554.353,1.42856
554.753,1.43164
555.153,1.43485
555.553,1.4382
555.953,1.44166
556.353,1.44523
556.753,1.44891
557.153,1.45267
557.553,1.45652
557.953,1.46043
558.353,1.4644
558.753,1.46842
559.153,1.47246
559.553,1.47652
559.953,1.48058
560.353,1.48462
560.753,1.48863
561.153,1.49259
561.553,1.49649
561.953,1.50032
562.353,1.50405
562.753,1.50767
563.153,1.51116
563.553,1.51451
563.953,1.51771
564.353,1.52074
564.753,1.52359
565.153,1.52624
565.553,1.52868
565.953,1.5309
566.353,1.53289
566.753,1.53464
567.153,1.53614
567.553,1.53738
567.953,1.53835
568.353,1.53906
568.753,1.53949
569.153,1.53964
569.553,1.5395
569.953,1.53904
570.353,1.53824
570.753,1.53709
571.153,1.53562
571.553,1.53381
571.953,1.53168
572.353,1.52923
572.753,1.52648
573.153,1.52342
573.553,1.52008
573.953,1.51645
574.353,1.51257
574.753,1.50844
575.153,1.50407
575.553,1.49948
575.953,1.49469
576.353,1.48972
576.753,1.48457
577.153,1.47928
577.553,1.47385
577.953,1.4683
578.353,1.46266
578.753,1.45694
579.153,1.45115
579.553,1.44532
579.953,1.43946
580.353,1.43359
580.753,1.42772
581.153,1.42187
581.553,1.41605
581.953,1.41029
582.353,1.40458
582.753,1.39895
583.153,1.3934
583.553,1.38795
583.953,1.3826
584.353,1.37737
584.753,1.37226
585.153,1.36729
585.553,1.36245
585.953,1.35775
586.353,1.3532
586.753,1.34881
587.153,1.34456
587.553,1.34047
587.953,1.33655
588.353,1.33277
588.753,1.32916
589.153,1.32571
589.553,1.32241
589.953,1.31927
590.353,1.31628
590.753,1.31345
591.153,1.31076
591.553,1.30822
591.953,1.30581
592.353,1.30355
592.753,1.30141
593.153,1.29941
593.553,1.29752
593.953,1.29576
594.353,1.29411
594.753,1.29257
595.153,1.29114
595.553,1.2898
595.953,1.28856
596.353,1.2874
596.753,1.28634
597.153,1.28535
597.553,1.28444
597.953,1.28359
598.353,1.28282
598.753,1.28211
599.153,1.28145
599.553,1.28085
599.953,1.28031
600.353,1.27981
600.753,1.27935
601.153,1.27893
601.553,1.27856
601.953,1.27821
602.353,1.2779
602.753,1.27762
603.153,1.27736
603.553,1.27713
603.953,1.27693
604.353,1.27674
604.753,1.27657
605.153,1.27642
605.553,1.27629
605.953,1.27617
606.353,1.27606
606.753,1.27596
607.153,1.27588
607.553,1.2758
607.953,1.27573
608.353,1.27567
608.753,1.27562
609.153,1.27557
609.553,1.27553
609.953,1.27549
610.353,1.27546
610.753,1.27543
611.153,1.27541
611.553,1.27539
611.953,1.27537
612.353,1.27535
612.753,1.27534
613.153,1.27532
613.553,1.27531
613.953,1.2753
614.353,1.27529
614.753,1.27529
615.153,1.27528
615.553,1.27528
615.953,1.27527
616.353,1.27527
616.753,1.27526
617.153,1.27526
617.253,1.27526