File: mohanta_2013/no_buffer/raman/curve_1_fit.dat
497.553,0.0103516
497.953,0.0107983
498.353,0.0112598
498.753,0.0117363
499.153,0.012228
499.553,0.0127353
499.953,0.0132583
500.353,0.0137973
500.753,0.0143524
501.153,0.0149239
501.553,0.015512
501.953,0.0161168
502.353,0.0167384
502.753,0.0173771
503.153,0.0180329
503.553,0.0187061
503.953,0.0193965
504.353,0.0201044
504.753,0.0208299
505.153,0.0215728
505.553,0.0223334
505.953,0.0231115
506.353,0.0239071
506.753,0.0247202
507.153,0.0255508
507.553,0.0263987
507.953,0.0272639
508.353,0.0281461
508.753,0.0290453
509.153,0.0299612
509.553,0.0308936
509.953,0.0318423
510.353,0.032807
510.753,0.0337875
511.153,0.0347833
511.553,0.0357941
511.953,0.0368196
512.353,0.0378593
512.753,0.0389128
513.153,0.0399797
513.553,0.0410593
513.953,0.0421513
514.353,0.0432549
514.753,0.0443698
515.153,0.0454951
515.553,0.0466304
515.953,0.0477748
516.353,0.0489278
516.753,0.0500886
517.153,0.0512563
517.553,0.0524304
517.953,0.0536099
518.353,0.054794
518.753,0.0559818
519.153,0.0571725
519.553,0.0583652
519.953,0.059559
520.353,0.0607529
520.753,0.0619459
521.153,0.063137
521.553,0.0643254
521.953,0.0655099
522.353,0.0666895
522.753,0.0678633
523.153,0.06903
523.553,0.0701888
523.953,0.0713385
524.353,0.0724779
524.753,0.0736062
525.153,0.0747221
525.553,0.0758246
525.953,0.0769126
526.353,0.077985
526.753,0.0790407
527.153,0.0800787
527.553,0.0810979
527.953,0.0820972
528.353,0.0830756
528.753,0.084032
529.153,0.0849654
529.553,0.0858749
529.953,0.0867593
530.353,0.0876179
530.753,0.0884495
531.153,0.0892533
531.553,0.0900284
531.953,0.0907739
532.353,0.091489
532.753,0.0921729
533.153,0.0928247
533.553,0.0934437
533.953,0.0940293
534.353,0.0945807
534.753,0.0950972
535.153,0.0955784
535.553,0.0960236
535.953,0.0964322
536.353,0.0968039
536.753,0.0971381
537.153,0.0974345
537.553,0.0976928
537.953,0.0979125
538.353,0.0980935
538.753,0.0982355
539.153,0.0983384
539.553,0.0984021
539.953,0.0984264
540.353,0.0983677
540.753,0.0981588
541.153,0.0977998
541.553,0.0972925
541.953,0.0966392
542.353,0.0958428
542.753,0.094907
543.153,0.0938359
543.553,0.0926344
543.953,0.0913078
544.353,0.089862
544.753,0.0883032
545.153,0.0866381
545.553,0.0848739
545.953,0.0830179
546.353,0.0810777
546.753,0.0790612
547.153,0.0769765
547.553,0.0748316
547.953,0.0726347
548.353,0.070394
548.753,0.0681177
549.153,0.0658137
549.553,0.06349
549.953,0.0611542
550.353,0.0588139
550.753,0.0564762
551.153,0.0541482
551.553,0.0518363
551.953,0.049547
552.353,0.047286
552.753,0.0450589
553.153,0.0428707
553.553,0.0407261
553.953,0.0386293
554.353,0.0365843
554.753,0.0345943
555.153,0.0326622
555.553,0.0307907
555.953,0.0289819
556.353,0.0272374
556.753,0.0255586
557.153,0.0239464
557.553,0.0224015
557.953,0.020924
558.353,0.019514
558.753,0.018171
559.153,0.0168945
559.553,0.0156835
559.953,0.0145369
560.353,0.0134535
560.753,0.0124317
561.153,0.0114698
561.553,0.0105662
561.953,0.00971873
562.353,0.00892553
562.753,0.00818447
563.153,0.00749342
563.553,0.00685017
563.953,0.00625252
564.353,0.00569825
564.753,0.00518514
565.153,0.00471098
565.553,0.00427361
565.953,0.00387088
566.353,0.00350073
566.753,0.0031611
567.153,0.00285004
567.553,0.00256565
567.953,0.00230608
568.353,0.00206959
568.753,0.0018545
569.153,0.00165921
569.553,0.0014822
569.953,0.00132205
570.353,0.00117739
570.753,0.00104694
571.153,0.000929523
571.553,0.000824003
571.953,0.00072934
572.353,0.00064456
572.753,0.000568761
573.153,0.000501104
573.553,0.000440817
573.953,0.000387188
574.353,0.00033956
574.753,0.000297334
575.153,0.000259959
575.553,0.000226933
575.953,0.000197798
576.353,0.000172139
576.753,0.000149578
577.153,0.000129775
577.553,0.00011242
577.953,9.72371e-05
578.353,8.39752e-05
578.753,7.24106e-05
579.153,6.23428e-05
579.553,5.35923e-05
579.953,4.59993e-05
580.353,3.94214e-05
580.753,3.37322e-05
581.153,2.88198e-05
581.553,2.45849e-05
581.953,2.09401e-05
582.353,1.78083e-05
582.753,1.51216e-05
583.153,1.28205e-05
583.553,1.08529e-05
583.953,9.1731e-06
584.353,7.74142e-06
584.753,6.52315e-06
585.153,5.48816e-06
585.553,4.61029e-06
585.953,3.8669e-06
586.353,3.23839e-06
586.753,2.70787e-06
587.153,2.26078e-06
587.553,1.88461e-06
587.953,1.56862e-06
588.353,1.30361e-06
588.753,1.0817e-06
589.153,8.96189e-07
589.553,7.41353e-07
589.953,6.12326e-07
590.353,5.04978e-07
590.753,4.1581e-07
591.153,3.41861e-07
591.553,2.80632e-07
591.953,2.30015e-07
592.353,1.88238e-07
592.753,1.53813e-07
593.153,1.2549e-07
593.553,1.02225e-07
593.953,8.31456e-08
594.353,6.75232e-08
594.753,5.47519e-08
595.153,4.43279e-08
595.553,3.58334e-08
595.953,2.89222e-08
596.353,2.33081e-08
596.753,1.87549e-08
597.153,1.5068e-08
597.553,1.20872e-08
597.953,9.68127e-09
598.353,7.74229e-09
598.753,6.18215e-09
599.153,4.9288e-09
599.553,3.92352e-09
599.953,3.11848e-09
600.353,2.47481e-09
600.753,1.96098e-09
601.153,1.55145e-09
601.553,1.22556e-09
601.953,9.66634e-10
602.353,7.61242e-10
602.753,5.98572e-10
603.153,4.6994e-10
603.553,3.68383e-10
603.953,2.8833e-10
604.353,2.25327e-10
604.753,1.7582e-10
605.153,1.3698e-10
605.553,1.06556e-10
605.953,8.27615e-11
606.353,6.41819e-11
606.753,4.9697e-11
607.153,3.84219e-11
607.553,2.96593e-11
607.953,2.28599e-11
608.353,1.75923e-11
608.753,1.35176e-11
609.153,1.03708e-11
609.553,7.94429e-12
609.953,6.07618e-12
610.353,4.64023e-12
610.753,3.53818e-12
611.153,2.69372e-12
611.553,2.04766e-12
611.953,1.55416e-12
612.353,1.17779e-12
612.753,8.91187e-13
613.153,6.73292e-13
613.553,5.07891e-13
613.953,3.82534e-13
614.353,2.87675e-13
614.753,2.16006e-13
615.153,1.61943e-13
615.553,1.21225e-13
615.953,9.06053e-14
616.353,6.76157e-14
616.753,5.03818e-14
617.153,3.74828e-14
617.253,3.48031e-14