File: mohanta_2013/no_buffer/raman/curve_2_fit.dat
497.553,2.47739e-09
497.953,3.04155e-09
498.353,3.7299e-09
498.753,4.56881e-09
499.153,5.58999e-09
499.553,6.83159e-09
499.953,8.33941e-09
500.353,1.01684e-08
500.753,1.23843e-08
501.153,1.50658e-08
501.553,1.83069e-08
501.953,2.22199e-08
502.353,2.69384e-08
502.753,3.26215e-08
503.153,3.94583e-08
503.553,4.76733e-08
503.953,5.75327e-08
504.353,6.93517e-08
504.753,8.35031e-08
505.153,1.00427e-07
505.553,1.20643e-07
505.953,1.44762e-07
506.353,1.73504e-07
506.753,2.07715e-07
507.153,2.48387e-07
507.553,2.96683e-07
507.953,3.53964e-07
508.353,4.2182e-07
508.753,5.0211e-07
509.153,5.96998e-07
509.553,7.09006e-07
509.953,8.41065e-07
510.353,9.96579e-07
510.753,1.1795e-06
511.153,1.39439e-06
511.553,1.64655e-06
511.953,1.94208e-06
512.353,2.28803e-06
512.753,2.69252e-06
513.153,3.1649e-06
513.553,3.7159e-06
513.953,4.35782e-06
514.353,5.10479e-06
514.753,5.97295e-06
515.153,6.98076e-06
515.553,8.14928e-06
515.953,9.50251e-06
516.353,1.10678e-05
516.753,1.28761e-05
517.153,1.49628e-05
517.553,1.73677e-05
517.953,2.0136e-05
518.353,2.33189e-05
518.753,2.6974e-05
519.153,3.11664e-05
519.553,3.59691e-05
519.953,4.14643e-05
520.353,4.77444e-05
520.753,5.49128e-05
521.153,6.30851e-05
521.553,7.23907e-05
521.953,8.29739e-05
522.353,9.49955e-05
522.753,0.000108634
523.153,0.000124089
523.553,0.00014158
523.953,0.000161352
524.353,0.000183675
524.753,0.000208846
525.153,0.000237196
525.553,0.000269085
525.953,0.000304912
526.353,0.000345113
526.753,0.000390169
527.153,0.000440601
527.553,0.000496982
527.953,0.000559937
528.353,0.000630145
528.753,0.000708344
529.153,0.000795335
529.553,0.000891988
529.953,0.000999242
530.353,0.00111811
530.753,0.00124969
531.153,0.00139515
531.553,0.00155576
531.953,0.00173288
532.353,0.00192795
532.753,0.00214252
533.153,0.00237825
533.553,0.0026369
533.953,0.00292033
534.353,0.00323052
534.753,0.00356957
535.153,0.00393968
535.553,0.0043432
535.953,0.00478257
536.353,0.00526035
536.753,0.00577925
537.153,0.00634206
537.553,0.00695172
537.953,0.00761126
538.353,0.00832383
538.753,0.0090927
539.153,0.00992123
539.553,0.0108129
539.953,0.0117711
540.353,0.0127997
540.753,0.0139021
541.153,0.0150823
541.553,0.0163439
541.953,0.0176907
542.353,0.0191267
542.753,0.0206555
543.153,0.022281
543.553,0.0240068
543.953,0.0258368
544.353,0.0277745
544.753,0.0298233
545.153,0.0319865
545.553,0.0342674
545.953,0.036669
546.353,0.0391939
546.753,0.0418448
547.153,0.0446238
547.553,0.0475329
547.953,0.0505737
548.353,0.0537474
548.753,0.0570549
549.153,0.0604967
549.553,0.0640726
549.953,0.0677823
550.353,0.0716247
550.753,0.0755982
551.153,0.0797009
551.553,0.08393
551.953,0.0882824
552.353,0.0927542
552.753,0.097341
553.153,0.102038
553.553,0.106839
553.953,0.111737
554.353,0.116727
554.753,0.1218
555.153,0.126947
555.553,0.132161
555.953,0.137432
556.353,0.142749
556.753,0.148102
557.153,0.153481
557.553,0.158872
557.953,0.164264
558.353,0.169646
558.753,0.175003
559.153,0.180322
559.553,0.185591
559.953,0.190794
560.353,0.19592
560.753,0.200952
561.153,0.205878
561.553,0.210684
561.953,0.215354
562.353,0.219877
562.753,0.224237
563.153,0.228422
563.553,0.232419
563.953,0.236215
564.353,0.239799
564.753,0.243158
565.153,0.246282
565.553,0.24916
565.953,0.251784
566.353,0.254144
566.753,0.256233
567.153,0.258043
567.553,0.259568
567.953,0.260804
568.353,0.261745
568.753,0.26239
569.153,0.262735
569.553,0.262775
569.953,0.262472
570.353,0.261814
570.753,0.260804
571.153,0.259446
571.553,0.257745
571.953,0.255709
572.353,0.253346
572.753,0.250664
573.153,0.247676
573.553,0.244391
573.953,0.240823
574.353,0.236987
574.753,0.232895
575.153,0.228565
575.553,0.224011
575.953,0.21925
576.353,0.214301
576.753,0.209179
577.153,0.203903
577.553,0.198491
577.953,0.192962
578.353,0.187332
578.753,0.18162
579.153,0.175844
579.553,0.170021
579.953,0.164169
580.353,0.158303
580.753,0.15244
581.153,0.146595
581.553,0.140784
581.953,0.13502
582.353,0.129317
582.753,0.123687
583.153,0.118141
583.553,0.112692
583.953,0.107349
584.353,0.10212
584.753,0.0970143
585.153,0.0920393
585.553,0.0872011
585.953,0.0825054
586.353,0.0779569
586.753,0.0735594
587.153,0.0693159
587.553,0.0652288
587.953,0.0612996
588.353,0.0575291
588.753,0.0539174
589.153,0.050464
589.553,0.0471679
589.953,0.0440273
590.353,0.0410402
590.753,0.038204
591.153,0.0355156
591.553,0.0329717
591.953,0.0305686
592.353,0.0283022
592.753,0.0261684
593.153,0.0241627
593.553,0.0222806
593.953,0.0205172
594.353,0.0188678
594.753,0.0173275
595.153,0.0158914
595.553,0.0145546
595.953,0.0133122
596.353,0.0121593
596.753,0.0110913
597.153,0.0101034
597.553,0.00919099
597.953,0.00834968
598.353,0.0075751
598.753,0.00686307
599.153,0.00620956
599.553,0.00561066
599.953,0.00506266
600.353,0.004562
600.753,0.00410529
601.153,0.00368929
601.553,0.00331096
601.953,0.00296741
602.353,0.0026559
602.753,0.00237387
603.153,0.00211892
603.553,0.00188879
603.953,0.00168137
604.353,0.00149471
604.753,0.00132697
605.153,0.00117646
605.553,0.0010416
605.953,0.00092096
606.353,0.000813188
606.753,0.000717055
607.153,0.00063143
607.553,0.000555277
607.953,0.000487648
608.353,0.000427675
608.753,0.00037457
609.153,0.000327615
609.553,0.000286158
609.953,0.000249609
610.353,0.000217433
610.753,0.000189149
611.153,0.00016432
611.553,0.000142558
611.953,0.00012351
612.353,0.000106863
612.753,9.2334e-05
613.153,7.96725e-05
613.553,6.86541e-05
613.953,5.90794e-05
614.353,5.07711e-05
614.753,4.35722e-05
615.153,3.73434e-05
615.553,3.19617e-05
615.953,2.73185e-05
616.353,2.33183e-05
616.753,1.98768e-05
617.153,1.69203e-05
617.253,1.62492e-05