File: mohanta_2013/no_buffer/raman/raman_peaks.csv
494.881, 1.29594
497.553, 1.29689
499.678, 1.30459
502.394, 1.30407
504.899, 1.30494
507.402, 1.31041
510.074, 1.3121
512.244, 1.3151
514.911, 1.32315
517.245, 1.33131
519.241, 1.34509
521.405, 1.35611
524.073, 1.36352
526.581, 1.3607
529.093, 1.35326
531.599, 1.35298
533.431, 1.36165
535.763, 1.37156
538.266, 1.37703
540.77, 1.37974
543.483, 1.38245
545.777, 1.38821
547.445, 1.39204
548.275, 1.40032
549.104, 1.4086
550.769, 1.4179
553.102, 1.42677
554.933, 1.43751
556.596, 1.4482
558.426, 1.46039
559.919, 1.47544
559.926, 1.46506
561.582, 1.48785
562.41, 1.49912
563.239, 1.50832
564.067, 1.51891
564.898, 1.52581
565.894, 1.53463
566.554, 1.5479
567.814, 1.53681
569.056, 1.55383
571.009, 1.5478
572.408, 1.53739
573.252, 1.52516
573.886, 1.51385
574.937, 1.50345
575.78, 1.49329
576.622, 1.48221
576.908, 1.47206
578.306, 1.46258
579.151, 1.44896
579.575, 1.43973
579.997, 1.4335
580.281, 1.42497
581.68, 1.4141
582.525, 1.40094
583.366, 1.39124
584.208, 1.382
585.05, 1.37138
585.684, 1.36077
586.735, 1.3506
587.576, 1.34228
588.834, 1.33442
590.094, 1.32425
590.935, 1.31639
592.611, 1.3084
594.288, 1.29868
596.243, 1.29
597.64, 1.28351
600.148, 1.28023
602.657, 1.27695
605.167, 1.27044
607.679, 1.26254
610.188, 1.25742
612.694, 1.25828
615.199, 1.25915
617.289, 1.25772