File: mohanta_2013/25nm/raman/curve_2_fit.dat
507.442,6.19835e-44
507.742,1.69393e-43
508.042,4.60536e-43
508.342,1.24561e-42
508.642,3.35162e-42
508.942,8.97174e-42
509.242,2.38918e-41
509.542,6.32955e-41
509.842,1.6682e-40
510.142,4.37394e-40
510.442,1.1409e-39
510.742,2.96058e-39
511.042,7.64283e-39
511.342,1.96283e-38
511.642,5.01491e-38
511.942,1.27466e-37
512.242,3.22311e-37
512.542,8.10788e-37
512.842,2.02904e-36
513.142,5.05155e-36
513.442,1.25115e-35
513.742,3.0828e-35
514.042,7.55671e-35
514.342,1.84277e-34
514.642,4.47053e-34
514.942,1.07894e-33
515.242,2.59053e-33
515.542,6.18771e-33
515.842,1.47035e-32
516.142,3.47588e-32
516.442,8.17445e-32
516.742,1.91251e-31
517.042,4.45142e-31
517.342,1.03073e-30
517.642,2.37434e-30
517.942,5.44115e-30
518.242,1.24048e-29
518.542,2.81345e-29
518.842,6.34805e-29
519.142,1.42492e-28
519.442,3.18196e-28
519.742,7.06883e-28
520.042,1.56225e-27
520.342,3.43484e-27
520.642,7.51299e-27
520.942,1.63482e-26
521.242,3.53898e-26
521.542,7.62143e-26
521.842,1.63285e-25
522.142,3.48022e-25
522.442,7.37934e-25
522.742,1.55661e-24
523.042,3.26658e-24
523.342,6.81956e-24
523.642,1.41635e-23
523.942,2.92642e-23
524.242,6.01525e-23
524.542,1.23004e-22
524.842,2.5023e-22
525.142,5.06417e-22
525.442,1.0196e-21
525.742,2.04221e-21
526.042,4.06931e-21
526.342,8.06666e-21
526.642,1.59081e-20
526.942,3.12099e-20
527.242,6.0914e-20
527.542,1.18275e-19
527.842,2.28465e-19
528.142,4.39034e-19
528.442,8.39319e-19
528.742,1.59627e-18
529.042,3.02021e-18
529.342,5.68484e-18
529.642,1.06451e-17
529.942,1.98305e-17
530.242,3.67509e-17
530.542,6.77568e-17
530.842,1.24276e-16
531.142,2.26765e-16
531.442,4.11635e-16
531.742,7.43363e-16
532.042,1.33549e-15
532.342,2.38688e-15
532.642,4.24396e-15
532.942,7.50695e-15
533.242,1.32101e-14
533.542,2.3126e-14
533.842,4.02758e-14
534.142,6.97814e-14
534.442,1.20278e-13
534.742,2.06245e-13
535.042,3.51829e-13
535.342,5.97077e-13
535.642,1.00805e-12
535.942,1.69309e-12
536.242,2.82899e-12
536.542,4.70256e-12
536.842,7.77657e-12
537.142,1.27936e-11
537.442,2.09386e-11
537.742,3.4092e-11
538.042,5.52217e-11
538.342,8.89851e-11
538.642,1.42651e-10
538.942,2.27502e-10
539.242,3.60949e-10
539.542,5.69714e-10
539.842,8.94579e-10
540.142,1.39744e-09
540.442,2.17168e-09
540.742,3.35745e-09
541.042,5.16387e-09
541.342,7.90118e-09
541.642,1.20271e-08
541.942,1.82128e-08
542.242,2.74376e-08
542.542,4.11213e-08
542.842,6.13108e-08
543.142,9.09408e-08
543.442,1.34193e-07
543.742,1.96995e-07
544.042,2.87693e-07
544.342,4.17979e-07
544.642,6.0413e-07
544.942,8.68675e-07
545.242,1.24261e-06
545.542,1.76833e-06
545.842,2.50347e-06
546.142,3.52593e-06
546.442,4.94032e-06
546.742,6.88632e-06
547.042,9.54927e-06
547.342,1.31736e-05
547.642,1.80796e-05
547.942,2.46845e-05
548.242,3.35282e-05
548.542,4.53052e-05
548.842,6.09027e-05
549.142,8.14471e-05
549.442,0.000108359
549.742,0.000143419
550.042,0.000188842
550.342,0.000247367
550.642,0.000322355
550.942,0.000417906
551.242,0.000538982
551.542,0.000691545
551.842,0.000882709
552.142,0.0011209
552.442,0.001416
552.742,0.00177956
553.042,0.00222492
553.342,0.00276736
553.642,0.00342427
553.942,0.00421523
554.242,0.00516209
554.542,0.00628898
554.842,0.0076223
555.142,0.00919057
555.442,0.0110243
555.742,0.0131555
556.042,0.0156177
556.342,0.018445
556.642,0.0216715
556.942,0.0253309
557.242,0.0294553
557.542,0.0340743
557.842,0.0392141
558.142,0.044896
558.442,0.0511356
558.742,0.0579416
559.042,0.0653144
559.342,0.073245
559.642,0.0817142
559.942,0.0906918
560.242,0.100136
560.542,0.109992
560.842,0.120195
561.142,0.130665
561.442,0.141314
561.742,0.152041
562.042,0.162737
562.342,0.173287
562.642,0.183567
562.942,0.193452
563.242,0.202816
563.542,0.211536
563.842,0.219491
564.142,0.226568
564.442,0.232666
564.742,0.237694
565.042,0.241576
565.342,0.244253
565.642,0.245684
565.942,0.245909
566.242,0.245582
566.542,0.244882
566.842,0.243811
567.142,0.242374
567.442,0.240578
567.742,0.238432
568.042,0.235944
568.342,0.233127
568.642,0.229991
568.942,0.226552
569.242,0.222824
569.542,0.218823
569.842,0.214566
570.142,0.210071
570.442,0.205356
570.742,0.200441
571.042,0.195346
571.342,0.190089
571.642,0.184692
571.942,0.179175
572.242,0.173557
572.542,0.167859
572.842,0.1621
573.142,0.156301
573.442,0.150478
573.742,0.144652
574.042,0.13884
574.342,0.133057
574.642,0.127321
574.942,0.121647
575.242,0.116048
575.542,0.110538
575.842,0.105129
576.142,0.0998324
576.442,0.0946579
576.742,0.0896147
577.042,0.0847109
577.342,0.0799533
577.642,0.0753477
577.942,0.0708992
578.242,0.0666116
578.542,0.0624878
578.842,0.05853
579.142,0.0547392
579.442,0.0511158
579.742,0.0476595
580.042,0.0443691
580.342,0.0412429
580.642,0.0382785
580.942,0.035473
581.242,0.032823
581.542,0.0303246
581.842,0.0279737
582.142,0.0257656
582.442,0.0236957
582.742,0.0217588
583.042,0.0199498
583.342,0.0182633
583.642,0.0166938
583.942,0.015236
584.242,0.0138842
584.542,0.0126331
584.842,0.0114772
585.142,0.0104112
585.442,0.00942973
585.742,0.00852779
586.042,0.00770036
586.342,0.00694261
586.642,0.00624988
586.942,0.00561769
587.242,0.00504175
587.542,0.00451795
587.842,0.00404239
588.142,0.00361138
588.442,0.0032214
588.742,0.00286916
589.042,0.00255153
589.342,0.0022656
589.642,0.00200865
589.942,0.00177812
590.242,0.00157165
590.542,0.00138704
590.842,0.00122224
591.142,0.00107538
591.442,0.000944728
591.742,0.000828681
592.042,0.00072578
592.342,0.000634687
592.642,0.000554181
592.942,0.000483149
593.242,0.000420579
593.542,0.000365553
593.842,0.000317243
594.142,0.000274897
594.442,0.00023784
594.742,0.000205464
595.042,0.000177225
595.342,0.000152634
595.642,0.000131255
595.742,0.000124774