File: mohanta_2013/25nm/raman/curve_total_fit.dat
507.442,0.99562
507.742,0.995911
508.042,0.996216
508.342,0.996534
508.642,0.996866
508.942,0.997212
509.242,0.997574
509.542,0.997951
509.842,0.998344
510.142,0.998753
510.442,0.99918
510.742,0.999624
511.042,1.00009
511.342,1.00057
511.642,1.00107
511.942,1.00159
512.242,1.00213
512.542,1.00269
512.842,1.00328
513.142,1.00388
513.442,1.00451
513.742,1.00517
514.042,1.00585
514.342,1.00655
514.642,1.00728
514.942,1.00803
515.242,1.00881
515.542,1.00962
515.842,1.01046
516.142,1.01133
516.442,1.01222
516.742,1.01315
517.042,1.01411
517.342,1.0151
517.642,1.01612
517.942,1.01718
518.242,1.01826
518.542,1.01939
518.842,1.02055
519.142,1.02174
519.442,1.02297
519.742,1.02424
520.042,1.02554
520.342,1.02688
520.642,1.02826
520.942,1.02968
521.242,1.03114
521.542,1.03264
521.842,1.03419
522.142,1.03577
522.442,1.03739
522.742,1.03906
523.042,1.04077
523.342,1.04252
523.642,1.04432
523.942,1.04615
524.242,1.04804
524.542,1.04997
524.842,1.05194
525.142,1.05396
525.442,1.05602
525.742,1.05812
526.042,1.06028
526.342,1.06247
526.642,1.06472
526.942,1.06701
527.242,1.06934
527.542,1.07172
527.842,1.07414
528.142,1.07661
528.442,1.07912
528.742,1.08168
529.042,1.08428
529.342,1.08693
529.642,1.08961
529.942,1.09234
530.242,1.09512
530.542,1.09793
530.842,1.10078
531.142,1.10368
531.442,1.10661
531.742,1.10958
532.042,1.11259
532.342,1.11563
532.642,1.11871
532.942,1.12183
533.242,1.12497
533.542,1.12815
533.842,1.13136
534.142,1.1346
534.442,1.13787
534.742,1.14116
535.042,1.14448
535.342,1.14782
535.642,1.15119
535.942,1.15457
536.242,1.15798
536.542,1.1614
536.842,1.16483
537.142,1.16828
537.442,1.17174
537.742,1.17521
538.042,1.17868
538.342,1.18216
538.642,1.18564
538.942,1.18913
539.242,1.19261
539.542,1.19609
539.842,1.19956
540.142,1.20303
540.442,1.20648
540.742,1.20993
541.042,1.21335
541.342,1.21676
541.642,1.22015
541.942,1.22352
542.242,1.22686
542.542,1.23018
542.842,1.23347
543.142,1.23672
543.442,1.23994
543.742,1.24312
544.042,1.24626
544.342,1.24936
544.642,1.25242
544.942,1.25543
545.242,1.25839
545.542,1.2613
545.842,1.26415
546.142,1.26695
546.442,1.26969
546.742,1.27236
547.042,1.27498
547.342,1.27753
547.642,1.28002
547.942,1.28243
548.242,1.28478
548.542,1.28705
548.842,1.28926
549.142,1.29138
549.442,1.29344
549.742,1.29542
550.042,1.29733
550.342,1.29917
550.642,1.30093
550.942,1.30263
551.242,1.30427
551.542,1.30584
551.842,1.30736
552.142,1.30884
552.442,1.31027
552.742,1.31168
553.042,1.31308
553.342,1.31447
553.642,1.31588
553.942,1.31732
554.242,1.31882
554.542,1.3204
554.842,1.32209
555.142,1.32391
555.442,1.32589
555.742,1.32807
556.042,1.32981
556.342,1.33055
556.642,1.33037
556.942,1.32933
557.242,1.32752
557.542,1.32505
557.842,1.32202
558.142,1.31856
558.442,1.3148
558.742,1.31084
559.042,1.3068
559.342,1.30281
559.642,1.29897
559.942,1.29536
560.242,1.29206
560.542,1.28913
560.842,1.28661
561.142,1.28453
561.442,1.28287
561.742,1.28163
562.042,1.28076
562.342,1.28021
562.642,1.2799
562.942,1.27975
563.242,1.27966
563.542,1.27952
563.842,1.27923
564.142,1.27867
564.442,1.27773
564.742,1.27631
565.042,1.27433
565.342,1.27168
565.642,1.26831
565.942,1.26424
566.242,1.26007
566.542,1.25596
566.842,1.25188
567.142,1.24779
567.442,1.24368
567.742,1.23952
568.042,1.23528
568.342,1.23096
568.642,1.22653
568.942,1.22199
569.242,1.21732
569.542,1.21253
569.842,1.2076
570.142,1.20255
570.442,1.19737
570.742,1.19206
571.042,1.18665
571.342,1.18113
571.642,1.17552
571.942,1.16982
572.242,1.16406
572.542,1.15825
572.842,1.1524
573.142,1.14652
573.442,1.14064
573.742,1.13477
574.042,1.12892
574.342,1.12311
574.642,1.11735
574.942,1.11166
575.242,1.10604
575.542,1.10052
575.842,1.09511
576.142,1.0898
576.442,1.08462
576.742,1.07958
577.042,1.07467
577.342,1.06991
577.642,1.0653
577.942,1.06085
578.242,1.05657
578.542,1.05244
578.842,1.04848
579.142,1.04469
579.442,1.04107
579.742,1.03761
580.042,1.03432
580.342,1.03119
580.642,1.02823
580.942,1.02542
581.242,1.02277
581.542,1.02028
581.842,1.01793
582.142,1.01572
582.442,1.01365
582.742,1.01171
583.042,1.0099
583.342,1.00821
583.642,1.00665
583.942,1.00519
584.242,1.00384
584.542,1.00258
584.842,1.00143
585.142,1.00036
585.442,0.999381
585.742,0.998479
586.042,0.997652
586.342,0.996894
586.642,0.996201
586.942,0.995569
587.242,0.994993
587.542,0.994469
587.842,0.993994
588.142,0.993563
588.442,0.993173
588.742,0.992821
589.042,0.992503
589.342,0.992217
589.642,0.99196
589.942,0.99173
590.242,0.991523
590.542,0.991338
590.842,0.991174
591.142,0.991027
591.442,0.990896
591.742,0.99078
592.042,0.990677
592.342,0.990586
592.642,0.990506
592.942,0.990435
593.242,0.990372
593.542,0.990317
593.842,0.990269
594.142,0.990226
594.442,0.990189
594.742,0.990157
595.042,0.990129
595.342,0.990104
595.642,0.990083
595.742,0.990076