File: mohanta_2013/25nm/raman/curve_1_fit.dat
507.442,0.00566811
507.742,0.00595961
508.042,0.00626414
508.342,0.00658218
508.642,0.0069142
508.942,0.0072607
509.242,0.00762218
509.542,0.00799916
509.842,0.00839216
510.142,0.00880172
510.442,0.00922838
510.742,0.0096727
511.042,0.0101352
511.342,0.0106166
511.642,0.0111173
511.942,0.011638
512.242,0.0121793
512.542,0.0127418
512.842,0.0133261
513.142,0.0139328
513.442,0.0145626
513.742,0.0152162
514.042,0.015894
514.342,0.0165969
514.642,0.0173255
514.942,0.0180804
515.242,0.0188623
515.542,0.0196718
515.842,0.0205097
516.142,0.0213766
516.442,0.0222732
516.742,0.0232001
517.042,0.0241581
517.342,0.0251477
517.642,0.0261697
517.942,0.0272248
518.242,0.0283135
518.542,0.0294366
518.842,0.0305946
519.142,0.0317883
519.442,0.0330182
519.742,0.034285
520.042,0.0355892
520.342,0.0369316
520.642,0.0383126
520.942,0.0397328
521.242,0.0411928
521.542,0.042693
521.842,0.0442341
522.142,0.0458165
522.442,0.0474407
522.742,0.0491072
523.042,0.0508162
523.342,0.0525683
523.642,0.0543639
523.942,0.0562032
524.242,0.0580866
524.542,0.0600143
524.842,0.0619866
525.142,0.0640038
525.442,0.0660659
525.742,0.0681732
526.042,0.0703257
526.342,0.0725235
526.642,0.0747666
526.942,0.077055
527.242,0.0793887
527.542,0.0817674
527.842,0.0841911
528.142,0.0866596
528.442,0.0891726
528.742,0.0917298
529.042,0.0943308
529.342,0.0969753
529.642,0.0996627
529.942,0.102393
530.242,0.105164
530.542,0.107978
530.842,0.110831
531.142,0.113725
531.442,0.116658
531.742,0.119629
532.042,0.122637
532.342,0.125681
532.642,0.128761
532.942,0.131876
533.242,0.135023
533.542,0.138202
533.842,0.141412
534.142,0.144651
534.442,0.147919
534.742,0.151212
535.042,0.154531
535.342,0.157873
535.642,0.161238
535.942,0.164622
536.242,0.168025
536.542,0.171445
536.842,0.174879
537.142,0.178327
537.442,0.181786
537.742,0.185254
538.042,0.188729
538.342,0.192209
538.642,0.195693
538.942,0.199177
539.242,0.20266
539.542,0.206139
539.842,0.209613
540.142,0.213078
540.442,0.216534
540.742,0.219976
541.042,0.223403
541.342,0.226813
541.642,0.230203
541.942,0.233571
542.242,0.236913
542.542,0.240229
542.842,0.243515
543.142,0.246768
543.442,0.249987
543.742,0.253169
544.042,0.256311
544.342,0.259412
544.642,0.262467
544.942,0.265476
545.242,0.268435
545.542,0.271342
545.842,0.274196
546.142,0.276992
546.442,0.27973
546.742,0.282406
547.042,0.285019
547.342,0.287567
547.642,0.290046
547.942,0.292455
548.242,0.294793
548.542,0.297056
548.842,0.299243
549.142,0.301352
549.442,0.30338
549.742,0.305327
550.042,0.307191
550.342,0.308969
550.642,0.310661
550.942,0.312264
551.242,0.313778
551.542,0.3152
551.842,0.31653
552.142,0.317766
552.442,0.318907
552.742,0.319952
553.042,0.320901
553.342,0.321751
553.642,0.322503
553.942,0.323156
554.242,0.323709
554.542,0.324162
554.842,0.324514
555.142,0.324764
555.442,0.324914
555.742,0.324961
556.042,0.324238
556.342,0.322158
556.642,0.318745
556.942,0.314043
557.242,0.308111
557.542,0.30102
557.842,0.292857
558.142,0.283717
558.442,0.273708
558.742,0.262943
559.042,0.251539
559.342,0.239618
559.642,0.227304
559.942,0.214716
560.242,0.201973
560.542,0.189187
560.842,0.176467
561.142,0.16391
561.442,0.151607
561.742,0.139638
562.042,0.128073
562.342,0.116973
562.642,0.106385
562.942,0.0963497
563.242,0.086894
563.542,0.0780371
563.842,0.0697883
564.142,0.0621493
564.442,0.0551138
564.742,0.0486694
565.042,0.0427979
565.342,0.0374766
565.642,0.032679
565.942,0.0283758
566.242,0.0245358
566.542,0.0211262
566.842,0.018114
567.142,0.015466
567.442,0.0131497
567.742,0.0111332
568.042,0.00938639
568.342,0.00788039
568.642,0.00658821
568.942,0.00548477
569.242,0.00454696
569.542,0.00375365
569.842,0.00308573
570.142,0.002526
570.442,0.00205912
570.742,0.00167147
571.042,0.0013511
571.342,0.00108755
571.642,0.000871723
571.942,0.000695794
572.242,0.000553037
572.542,0.000437722
572.842,0.000344996
573.142,0.00027077
573.442,0.000211621
573.742,0.000164698
574.042,0.00012764
574.342,9.85052e-05
574.642,7.5701e-05
574.942,5.79315e-05
575.242,4.41468e-05
575.542,3.35008e-05
575.842,2.53152e-05
576.142,1.90493e-05
576.442,1.42741e-05
576.742,1.0651e-05
577.042,7.91408e-06
577.342,5.85576e-06
577.642,4.31456e-06
577.942,3.16564e-06
578.242,2.3129e-06
578.542,1.68277e-06
578.842,1.21916e-06
579.142,8.79571e-07
579.442,6.31904e-07
579.742,4.52067e-07
580.042,3.22051e-07
580.342,2.28464e-07
580.642,1.61393e-07
580.942,1.13532e-07
581.242,7.95291e-08
581.542,5.54759e-08
581.842,3.85348e-08
582.142,2.66547e-08
582.442,1.83597e-08
582.742,1.2593e-08
583.042,8.60125e-09
583.342,5.85014e-09
583.642,3.96225e-09
583.942,2.67233e-09
584.242,1.79476e-09
584.542,1.20032e-09
584.842,7.99387e-10
585.142,5.30138e-10
585.442,3.50099e-10
585.742,2.30232e-10
586.042,1.50768e-10
586.342,9.83164e-11
586.642,6.3843e-11
586.942,4.1283e-11
587.242,2.65828e-11
587.542,1.70452e-11
587.842,1.08836e-11
588.142,6.92015e-12
588.442,4.38157e-12
588.742,2.76258e-12
589.042,1.73449e-12
589.342,1.08442e-12
589.642,6.75143e-13
589.942,4.18568e-13
590.242,2.58408e-13
590.542,1.58861e-13
590.842,9.72525e-14
591.142,5.92863e-14
591.442,3.59898e-14
591.742,2.17558e-14
592.042,1.30961e-14
592.342,7.85021e-15
592.642,4.68588e-15
592.942,2.7853e-15
593.242,1.64863e-15
593.542,9.71731e-16
593.842,5.70348e-16
594.142,3.33354e-16
594.442,1.94018e-16
594.742,1.12447e-16
595.042,6.48974e-17
595.342,3.72973e-17
595.642,2.13451e-17
595.742,1.77051e-17