File: mohanta_2013/25nm/raman/raman_peaks.csv
505.106, 0.99652
507.442, 1.00182
509.274, 1.01049
510.939, 1.01806
513.447, 1.01524
515.952, 1.01748
518.457, 1.01962
520.12, 1.03099
521.783, 1.04271
523.447, 1.0527
525.278, 1.06282
527.611, 1.0707
530.115, 1.07503
530.942, 1.08676
531.769, 1.09965
532.598, 1.10885
533.426, 1.12059
534.253, 1.13279
535.081, 1.14372
535.907, 1.15684
536.734, 1.16927
537.561, 1.18204
539.225, 1.19238
540.052, 1.20412
541.301, 1.211
541.712, 1.22068
542.539, 1.2331
543.366, 1.24599
544.194, 1.25612
545.858, 1.26761
547.52, 1.27932
549.185, 1.28862
550.849, 1.29896
552.511, 1.31137
554.175, 1.32136
556.512, 1.32407
558.356, 1.31573
559.198, 1.30557
560.04, 1.29587
560.88, 1.28848
562.557, 1.27899
564.652, 1.26995
566.332, 1.25609
568.01, 1.24499
568.433, 1.23714
568.439, 1.22884
568.444, 1.22054
570.111, 1.22696
570.12, 1.21244
570.413, 1.19099
570.546, 1.20067
571.262, 1.17069
571.533, 1.18175
572.382, 1.16145
572.46, 1.14877
573.093, 1.13976
573.516, 1.13146
574.151, 1.119
574.783, 1.11068
575.205, 1.10445
575.628, 1.09683
576.051, 1.08853
576.894, 1.07791
577.736, 1.06821
578.578, 1.05758
579.42, 1.04834
580.261, 1.03911
581.102, 1.03125
581.943, 1.02293
582.784, 1.01462
584.461, 1.00571
586.137, 0.997485
586.978, 0.988707
588.654, 0.980372
590.956, 0.974097
593.672, 0.972423
595.76, 0.973299