File: li_2014/400_xrd/curve_total_fit.dat
30.3582,4.75988
30.3882,4.76019
30.4182,4.7605
30.4482,4.76083
30.4782,4.76118
30.5082,4.76155
30.5382,4.76193
30.5682,4.76234
30.5982,4.76277
30.6282,4.76322
30.6582,4.76369
30.6882,4.7642
30.7182,4.76473
30.7482,4.76529
30.7782,4.76589
30.8082,4.76652
30.8382,4.76719
30.8682,4.7679
30.8982,4.76866
30.9282,4.76947
30.9582,4.77034
30.9882,4.77126
31.0182,4.77225
31.0482,4.77331
31.0782,4.77445
31.1082,4.77567
31.1382,4.77699
31.1682,4.77841
31.1982,4.77995
31.2282,4.78161
31.2582,4.78341
31.2882,4.78537
31.3182,4.78751
31.3482,4.78984
31.3782,4.79239
31.4082,4.7952
31.4382,4.79828
31.4682,4.80168
31.4982,4.80545
31.5282,4.80963
31.5582,4.81429
31.5882,4.81951
31.6182,4.82536
31.6482,4.83197
31.6782,4.83945
31.7082,4.84796
31.7382,4.85771
31.7682,4.86892
31.7982,4.88189
31.8282,4.897
31.8582,4.91472
31.8882,4.93563
31.9182,4.96049
31.9482,4.99028
31.9782,5.02621
32.0082,5.06984
32.0382,5.1231
32.0682,5.18829
32.0982,5.26794
32.1282,5.36432
32.1582,5.47831
32.1882,5.60717
32.2182,5.74133
32.2482,5.86165
32.2782,5.94165
32.3082,5.95835
32.3382,5.90656
32.3682,5.80262
32.3982,5.67323
32.4282,5.54165
32.4582,5.42165
32.4882,5.31865
32.5182,5.23308
32.5482,5.16309
32.5782,5.1062
32.6082,5.05997
32.6382,5.02229
32.6682,4.99145
32.6982,4.96608
32.7282,4.9451
32.7582,4.92767
32.7882,4.91313
32.8182,4.90096
32.8482,4.89074
32.8782,4.88215
32.9082,4.87493
32.9382,4.86886
32.9682,4.86377
32.9982,4.85952
33.0282,4.85599
33.0582,4.85309
33.0882,4.85073
33.1182,4.84885
33.1482,4.84739
33.1782,4.8463
33.2082,4.84553
33.2382,4.84505
33.2682,4.84483
33.2982,4.84484
33.3282,4.84505
33.3582,4.84545
33.3882,4.84601
33.4182,4.84671
33.4482,4.84754
33.4782,4.84849
33.5082,4.84953
33.5382,4.85066
33.5682,4.85186
33.5982,4.85313
33.6282,4.85445
33.6582,4.85581
33.6882,4.8572
33.7182,4.85862
33.7482,4.86006
33.7782,4.86149
33.8082,4.86293
33.8382,4.86436
33.8682,4.86578
33.8982,4.86717
33.9282,4.86853
33.9582,4.86985
33.9882,4.87113
34.0182,4.87237
34.0482,4.87355
34.0782,4.87467
34.1082,4.87573
34.1382,4.87672
34.1682,4.87764
34.1982,4.87849
34.2282,4.87925
34.2582,4.87994
34.2882,4.88054
34.3182,4.88105
34.3482,4.88148
34.3782,4.88182
34.4082,4.88207
34.4382,4.88224
34.4682,4.88231
34.4982,4.8823
34.5282,4.88223
34.5582,4.88214
34.5882,4.88202
34.6182,4.88187
34.6482,4.88171
34.6782,4.88154
34.7082,4.88136
34.7382,4.88118
34.7682,4.881
34.7982,4.88084
34.8282,4.88069
34.8582,4.88057
34.8882,4.88048
34.9182,4.88044
34.9482,4.88045
34.9782,4.88052
35.0082,4.88067
35.0382,4.8809
35.0682,4.88122
35.0982,4.88166
35.1282,4.88221
35.1582,4.88289
35.1882,4.88371
35.2182,4.88469
35.2482,4.88583
35.2782,4.88714
35.3082,4.88864
35.3382,4.89034
35.3682,4.89224
35.3982,4.89435
35.4282,4.89669
35.4582,4.89924
35.4882,4.90202
35.5182,4.90503
35.5482,4.90827
35.5782,4.91174
35.6082,4.91543
35.6382,4.91934
35.6682,4.92345
35.6982,4.92776
35.7282,4.93225
35.7582,4.93691
35.7882,4.94172
35.8182,4.94665
35.8482,4.95169
35.8782,4.9568
35.9082,4.96196
35.9382,4.96714
35.9682,4.9723
35.9982,4.97742
36.0282,4.98245
36.0582,4.98737
36.0882,4.99213
36.1182,4.9967
36.1482,5.00104
36.1782,5.00512
36.2082,5.0089
36.2382,5.01235
36.2682,5.01543
36.2982,5.01811
36.3282,5.02037
36.3582,5.02218
36.3882,5.02352
36.4182,5.02437
36.4482,5.0247
36.4782,5.02452
36.5082,5.02381
36.5382,5.02257
36.5682,5.02087
36.5982,5.01873
36.6282,5.01616
36.6582,5.01316
36.6882,5.00976
36.7182,5.00595
36.7482,5.00176
36.7782,4.99721
36.8082,4.99231
36.8382,4.98709
36.8682,4.98156
36.8982,4.97576
36.9282,4.96971
36.9582,4.96344
36.9882,4.95697
37.0182,4.95033
37.0482,4.94355
37.0782,4.93667
37.1082,4.9297
37.1382,4.92268
37.1682,4.91563
37.1982,4.90858
37.2282,4.90156
37.2582,4.89458
37.2882,4.88768
37.3182,4.88087
37.3482,4.87418
37.3782,4.86762
37.4082,4.8612
37.4382,4.85496
37.4682,4.84889
37.4982,4.84301
37.5282,4.83733
37.5582,4.83185
37.5882,4.82659
37.6182,4.82155
37.6482,4.81673
37.6782,4.81214
37.7082,4.80777
37.7382,4.80362
37.7682,4.7997
37.7982,4.79599
37.8282,4.7925
37.8582,4.78922
37.8882,4.78615
37.9182,4.78327
37.9482,4.78059
37.9782,4.77808
38.0082,4.77576
38.0382,4.7736
38.0682,4.77161
38.0982,4.76976
38.1282,4.76806
38.1582,4.7665
38.1882,4.76506
38.2182,4.76375
38.2482,4.76254
38.2782,4.76144
38.3082,4.76044
38.3382,4.75953
38.3682,4.7587
38.3982,4.75794
38.4282,4.75726
38.4382,4.75705