File: li_2014/400_xrd/curve_2_fit.dat
30.3582,1.07966e-23
30.3882,1.77757e-23
30.4182,2.91951e-23
30.4482,4.78342e-23
30.4782,7.8183e-23
30.5082,1.27477e-22
30.5382,2.07345e-22
30.5682,3.36436e-22
30.5982,5.44572e-22
30.6282,8.79334e-22
30.6582,1.41643e-21
30.6882,2.27606e-21
30.7182,3.64852e-21
30.7482,5.83438e-21
30.7782,9.30716e-21
30.8082,1.4811e-20
30.8382,2.35124e-20
30.8682,3.72352e-20
30.8982,5.88242e-20
30.9282,9.27049e-20
30.9582,1.45745e-19
30.9882,2.28576e-19
31.0182,3.57613e-19
31.0482,5.58135e-19
31.0782,8.68982e-19
31.1082,1.34967e-18
31.1382,2.09116e-18
31.1682,3.23217e-18
31.1982,4.98362e-18
31.2282,7.6655e-18
31.2582,1.1762e-17
31.2882,1.80039e-17
31.3182,2.74914e-17
31.3482,4.18767e-17
31.3782,6.36345e-17
31.4082,9.64623e-17
31.4382,1.45871e-16
31.4682,2.20051e-16
31.4982,3.31148e-16
31.5282,4.97126e-16
31.5582,7.44486e-16
31.5882,1.11222e-15
31.6182,1.65756e-15
31.6482,2.4643e-15
31.6782,3.6548e-15
31.7082,5.40726e-15
31.7382,7.98061e-15
31.7682,1.175e-14
31.7982,1.72579e-14
31.8282,2.52861e-14
31.8582,3.6959e-14
31.8882,5.38894e-14
31.9182,7.83847e-14
31.9482,1.13738e-13
31.9782,1.64635e-13
32.0082,2.37731e-13
32.0382,3.42446e-13
32.0682,4.92091e-13
32.0982,7.05412e-13
32.1282,1.00875e-12
32.1582,1.43904e-12
32.1882,2.04788e-12
32.2182,2.90724e-12
32.2482,4.11721e-12
32.2782,5.81661e-12
32.3082,8.1975e-12
32.3382,1.15249e-11
32.3682,1.61637e-11
32.3982,2.26144e-11
32.4282,3.15629e-11
32.4582,4.39454e-11
32.4882,6.10371e-11
32.5182,8.45707e-11
32.5482,1.16894e-10
32.5782,1.61178e-10
32.6082,2.21701e-10
32.6382,3.04209e-10
32.6682,4.16411e-10
32.6982,5.68614e-10
32.7282,7.74565e-10
32.7582,1.05255e-09
32.7882,1.42683e-09
32.8182,1.92951e-09
32.8482,2.60296e-09
32.8782,3.50293e-09
32.9082,4.70263e-09
32.9382,6.29789e-09
32.9682,8.41384e-09
32.9982,1.12134e-08
33.0282,1.49083e-08
33.0582,1.97725e-08
33.0882,2.61601e-08
33.1182,3.45273e-08
33.1482,4.54602e-08
33.1782,5.97097e-08
33.2082,7.82353e-08
33.2382,1.0226e-07
33.2682,1.33338e-07
33.2982,1.73439e-07
33.3282,2.25053e-07
33.3582,2.91318e-07
33.3882,3.76179e-07
33.4182,4.84582e-07
33.4482,6.22708e-07
33.4782,7.98265e-07
33.5082,1.02083e-06
33.5382,1.30228e-06
33.5682,1.65731e-06
33.5982,2.10399e-06
33.6282,2.66459e-06
33.6582,3.36638e-06
33.6882,4.24267e-06
33.7182,5.33409e-06
33.7482,6.69001e-06
33.7782,8.37023e-06
33.8082,1.0447e-05
33.8382,1.30075e-05
33.8682,1.61562e-05
33.8982,2.00185e-05
33.9282,2.47438e-05
33.9582,3.05103e-05
33.9882,3.75294e-05
34.0182,4.60513e-05
34.0482,5.63712e-05
34.0782,6.88362e-05
34.1082,8.38536e-05
34.1382,0.000101899
34.1682,0.000123528
34.1982,0.000149384
34.2282,0.000180214
34.2582,0.00021688
34.2882,0.000260371
34.3182,0.000311826
34.3482,0.000372543
34.3782,0.000444002
34.4082,0.000527884
34.4382,0.00062609
34.4682,0.000740765
34.4982,0.000874316
34.5282,0.00102944
34.5582,0.00120915
34.5882,0.00141678
34.6182,0.00165604
34.6482,0.00193101
34.6782,0.00224616
34.7082,0.00260642
34.7382,0.00301711
34.7682,0.00348404
34.7982,0.00401347
34.8282,0.00461214
34.8582,0.00528725
34.8882,0.00604646
34.9182,0.00689792
34.9482,0.00785018
34.9782,0.00891223
35.0082,0.0100934
35.0382,0.0114034
35.0682,0.0128521
35.0982,0.0144498
35.1282,0.0162066
35.1582,0.0181329
35.1882,0.020239
35.2182,0.0225348
35.2482,0.0250302
35.2782,0.0277345
35.3082,0.0306563
35.3382,0.0338038
35.3682,0.0371839
35.3982,0.0408028
35.4282,0.0446653
35.4582,0.0487747
35.4882,0.053133
35.5182,0.0577402
35.5482,0.0625947
35.5782,0.0676927
35.6082,0.0730283
35.6382,0.0785932
35.6682,0.084377
35.6982,0.0903666
35.7282,0.0965465
35.7582,0.102899
35.7882,0.109403
35.8182,0.116036
35.8482,0.122772
35.8782,0.129584
35.9082,0.136443
35.9382,0.143316
35.9682,0.150169
35.9982,0.156969
36.0282,0.163678
36.0582,0.17026
36.0882,0.176677
36.1182,0.182891
36.1482,0.188864
36.1782,0.194559
36.2082,0.19994
36.2382,0.20497
36.2682,0.209617
36.2982,0.21385
36.3282,0.217638
36.3582,0.220956
36.3882,0.223781
36.4182,0.226091
36.4482,0.227871
36.4782,0.229108
36.5082,0.229793
36.5382,0.229923
36.5682,0.229565
36.5982,0.228746
36.6282,0.22747
36.6582,0.225746
36.6882,0.223582
36.7182,0.220994
36.7482,0.217995
36.7782,0.214603
36.8082,0.210838
36.8382,0.206721
36.8682,0.202277
36.8982,0.197529
36.9282,0.192504
36.9582,0.187228
36.9882,0.18173
37.0182,0.176038
37.0482,0.17018
37.0782,0.164186
37.1082,0.158083
37.1382,0.151901
37.1682,0.145666
37.1982,0.139405
37.2282,0.133145
37.2582,0.126909
37.2882,0.120722
37.3182,0.114605
37.3482,0.108578
37.3782,0.102661
37.4082,0.0968713
37.4382,0.0912234
37.4682,0.0857317
37.4982,0.0804082
37.5282,0.0752632
37.5582,0.0703055
37.5882,0.0655419
37.6182,0.060978
37.6482,0.0566174
37.6782,0.0524628
37.7082,0.048515
37.7382,0.0447739
37.7682,0.041238
37.7982,0.0379047
37.8282,0.0347707
37.8582,0.0318314
37.8882,0.029082
37.9182,0.0265164
37.9482,0.0241284
37.9782,0.0219113
38.0082,0.0198577
38.0382,0.0179604
38.0682,0.0162116
38.0982,0.0146035
38.1282,0.0131285
38.1582,0.0117787
38.1882,0.0105463
38.2182,0.00942385
38.2482,0.00840388
38.2782,0.00747921
38.3082,0.00664286
38.3382,0.00588814
38.3682,0.00520864
38.3982,0.00459828
38.4282,0.00405125
38.4382,0.00388203