File: li_2014/400_xrd/curve_1_fit.dat
30.3582,0.0095421
30.3882,0.00984144
30.4182,0.010155
30.4482,0.0104838
30.4782,0.0108288
30.5082,0.011191
30.5382,0.0115717
30.5682,0.011972
30.5982,0.0123934
30.6282,0.0128374
30.6582,0.0133056
30.6882,0.0137997
30.7182,0.0143218
30.7482,0.014874
30.7782,0.0154586
30.8082,0.0160781
30.8382,0.0167355
30.8682,0.0174339
30.8982,0.0181766
30.9282,0.0189676
30.9582,0.019811
30.9882,0.0207117
31.0182,0.0216748
31.0482,0.0227062
31.0782,0.0238125
31.1082,0.0250011
31.1382,0.0262802
31.1682,0.0276593
31.1982,0.0291489
31.2282,0.030761
31.2582,0.0325094
31.2882,0.0344096
31.3182,0.0364796
31.3482,0.0387399
31.3782,0.0412144
31.4082,0.0439306
31.4382,0.0469205
31.4682,0.0502217
31.4982,0.0538781
31.5282,0.0579416
31.5582,0.0624738
31.5882,0.0675479
31.6182,0.0732519
31.6482,0.0796916
31.6782,0.0869955
31.7082,0.0953202
31.7382,0.104858
31.7682,0.115847
31.7982,0.128583
31.8282,0.143438
31.8582,0.160877
31.8882,0.181495
31.9182,0.206045
31.9482,0.235491
31.9782,0.27106
32.0082,0.314305
32.0382,0.367155
32.0682,0.43191
32.0982,0.511096
32.1282,0.606983
32.1582,0.720444
32.1882,0.848751
32.2182,0.982318
32.2482,1.10202
32.2782,1.18136
32.3082,1.19736
32.3382,1.14484
32.3682,1.04012
32.3982,0.90992
32.4282,0.777485
32.4582,0.656587
32.4882,0.552643
32.5182,0.466076
32.5482,0.395056
32.5782,0.337082
32.6082,0.28972
32.6382,0.250865
32.6682,0.218797
32.6982,0.192149
32.7282,0.169843
32.7582,0.151037
32.7882,0.135068
32.8182,0.121418
32.8482,0.109673
32.8782,0.0995057
32.9082,0.0906541
32.9382,0.0829062
32.9682,0.0760899
32.9982,0.0700648
33.0282,0.0647154
33.0582,0.059946
33.0882,0.0556771
33.1182,0.051842
33.1482,0.0483847
33.1782,0.0452579
33.2082,0.0424211
33.2382,0.0398401
33.2682,0.0374853
33.2982,0.0353312
33.3282,0.033356
33.3582,0.0315404
33.3882,0.029868
33.4182,0.0283241
33.4482,0.026896
33.4782,0.0255726
33.5082,0.0243438
33.5382,0.0232009
33.5682,0.0221362
33.5982,0.0211427
33.6282,0.0202143
33.6582,0.0193454
33.6882,0.018531
33.7182,0.0177668
33.7482,0.0170487
33.7782,0.016373
33.8082,0.0157366
33.8382,0.0151364
33.8682,0.0145697
33.8982,0.0140342
33.9282,0.0135276
33.9582,0.0130478
33.9882,0.012593
34.0182,0.0121615
34.0482,0.0117517
34.0782,0.0113623
34.1082,0.0109918
34.1382,0.0106391
34.1682,0.010303
34.1982,0.00998262
34.2282,0.00967688
34.2582,0.00938494
34.2882,0.00910599
34.3182,0.00883926
34.3482,0.00858405
34.3782,0.00833971
34.4082,0.00810564
34.4382,0.00788126
34.4682,0.00766605
34.4982,0.00745953
34.5282,0.00726121
34.5582,0.00707069
34.5882,0.00688756
34.6182,0.00671143
34.6482,0.00654197
34.6782,0.00637883
34.7082,0.00622171
34.7382,0.00607031
34.7682,0.00592437
34.7982,0.00578361
34.8282,0.00564781
34.8582,0.00551673
34.8882,0.00539015
34.9182,0.00526787
34.9482,0.0051497
34.9782,0.00503545
35.0082,0.00492497
35.0382,0.00481807
35.0682,0.00471461
35.0982,0.00461445
35.1282,0.00451744
35.1582,0.00442345
35.1882,0.00433236
35.2182,0.00424406
35.2482,0.00415842
35.2782,0.00407535
35.3082,0.00399473
35.3382,0.00391649
35.3682,0.00384052
35.3982,0.00376673
35.4282,0.00369505
35.4582,0.0036254
35.4882,0.00355769
35.5182,0.00349186
35.5482,0.00342784
35.5782,0.00336556
35.6082,0.00330497
35.6382,0.00324599
35.6682,0.00318858
35.6982,0.00313267
35.7282,0.00307822
35.7582,0.00302518
35.7882,0.0029735
35.8182,0.00292313
35.8482,0.00287402
35.8782,0.00282614
35.9082,0.00277945
35.9382,0.00273391
35.9682,0.00268947
35.9982,0.00264611
36.0282,0.00260379
36.0582,0.00256247
36.0882,0.00252213
36.1182,0.00248273
36.1482,0.00244425
36.1782,0.00240666
36.2082,0.00236993
36.2382,0.00233403
36.2682,0.00229894
36.2982,0.00226463
36.3282,0.00223109
36.3582,0.00219828
36.3882,0.00216619
36.4182,0.00213481
36.4482,0.00210409
36.4782,0.00207404
36.5082,0.00204462
36.5382,0.00201583
36.5682,0.00198764
36.5982,0.00196003
36.6282,0.001933
36.6582,0.00190652
36.6882,0.00188058
36.7182,0.00185517
36.7482,0.00183027
36.7782,0.00180586
36.8082,0.00178194
36.8382,0.0017585
36.8682,0.00173551
36.8982,0.00171297
36.9282,0.00169086
36.9582,0.00166919
36.9882,0.00164792
37.0182,0.00162706
37.0482,0.00160659
37.0782,0.00158651
37.1082,0.0015668
37.1382,0.00154745
37.1682,0.00152846
37.1982,0.00150982
37.2282,0.00149152
37.2582,0.00147354
37.2882,0.00145589
37.3182,0.00143856
37.3482,0.00142153
37.3782,0.00140481
37.4082,0.00138837
37.4382,0.00137223
37.4682,0.00135636
37.4982,0.00134077
37.5282,0.00132544
37.5582,0.00131038
37.5882,0.00129557
37.6182,0.00128101
37.6482,0.00126669
37.6782,0.00125261
37.7082,0.00123877
37.7382,0.00122515
37.7682,0.00121176
37.7982,0.00119859
37.8282,0.00118563
37.8582,0.00117287
37.8882,0.00116033
37.9182,0.00114798
37.9482,0.00113583
37.9782,0.00112387
38.0082,0.0011121
38.0382,0.00110051
38.0682,0.0010891
38.0982,0.00107787
38.1282,0.00106681
38.1582,0.00105593
38.1882,0.0010452
38.2182,0.00103464
38.2482,0.00102424
38.2782,0.00101399
38.3082,0.0010039
38.3382,0.00099396
38.3682,0.000984164
38.3982,0.000974513
38.4282,0.000965002
38.4382,0.000961863