File: li_2014/400_xrd/xrd.csv
29.8769, 4.78519
30.3582, 4.78387
30.7921, 4.79198
31.2006, 4.8141
31.6344, 4.85287
31.9272, 4.95084
31.9694, 5.04522
32.0362, 5.13764
32.0673, 5.23093
32.1347, 5.33244
32.1782, 5.46775
32.2191, 5.61333
32.2297, 5.72988
32.2562, 6.01606
32.2908, 5.90915
32.2934, 5.82929
32.4787, 5.34064
32.4953, 5.4715
32.5172, 5.20724
32.5758, 5.08305
32.7267, 4.98253
32.9102, 4.8898
33.3189, 4.88889
33.7517, 4.86182
34.1934, 4.85626
34.6066, 4.86801
35.0998, 4.89091
35.5892, 4.92409
36.031, 4.95967
36.3835, 5.04323
36.784, 5.00955
37.0354, 4.92256
37.361, 4.86018
37.6983, 4.82285
38.0527, 4.78626
38.4453, 4.77277