File: chaaben_2006/xrd/curve_total_fit.dat
32.4225,0.5
32.5725,0.5
32.7225,0.5
32.8725,0.5
33.0225,0.5
33.1725,0.5
33.3225,0.5
33.4725,0.5
33.6225,0.5
33.7725,0.5
33.9225,0.5
34.0725,0.50053
34.2225,1.39314
34.3725,237.559
34.5225,9917.31
34.6725,65383.8
34.8225,67942.8
34.9725,11127.8
35.1225,287.725
35.2725,1.6685
35.4225,0.500749
35.5725,0.5
35.7225,0.5
35.8725,0.5
36.0225,0.5
36.1725,0.5
36.3225,0.5
36.4725,0.5
36.6225,0.5
36.7725,0.5
36.9225,0.5
37.0725,0.5
37.2225,0.5
37.3725,0.5
37.5225,0.5
37.6725,0.5
37.8225,0.5
37.9725,0.5
38.1225,0.5
38.2725,0.5
38.4225,0.5
38.5725,0.5
38.7225,0.5
38.8725,0.5
39.0225,0.5
39.1725,0.5
39.3225,0.5
39.4725,0.5
39.6225,0.5
39.7725,0.5
39.9225,0.5
40.0725,0.5
40.2225,0.5
40.3725,0.5
40.5225,0.5
40.6725,0.5
40.8225,0.5
40.9725,0.5
41.1225,0.5
41.2725,0.5
41.4225,0.5
41.5725,0.5
41.7225,0.5
41.8725,0.5
42.0225,0.5
42.1725,0.5
42.3225,0.5
42.4725,0.5
42.6225,0.5
42.7725,0.5
42.9225,0.5
43.0725,0.5
43.2225,0.5
43.3725,0.5
43.5225,0.5
43.6725,0.5
43.8225,0.5
43.9725,0.5
44.1225,0.5
44.2725,0.5
44.4225,0.5
44.5725,0.5
44.7225,0.5
44.8725,0.5
45.0225,0.5
45.1725,0.5
45.3225,0.5
45.4725,0.5
45.6225,0.5
45.7725,0.5
45.9225,0.5
46.0725,0.5
46.2225,0.5
46.3725,0.5
46.5225,0.5
46.6725,0.5
46.8225,0.5
46.9725,0.5
47.1225,0.5
47.2725,0.5
47.4225,0.5
47.5725,0.5
47.7225,0.5
47.8725,0.5
48.0225,0.5
48.1725,0.5
48.3225,0.5
48.4725,0.5
48.6225,0.5
48.7725,0.5
48.9225,0.5
49.0725,0.5
49.2225,0.5
49.3725,0.5
49.5225,0.5
49.6725,0.5
49.8225,0.5
49.9725,0.5
50.1225,0.5
50.2725,0.5
50.4225,0.5
50.5725,0.5
50.7225,0.5
50.8725,0.5
51.0225,0.5
51.1725,0.5
51.3225,0.5
51.4725,0.5
51.6225,0.5
51.7725,0.5
51.9225,0.5
52.0725,0.5
52.2225,0.5
52.3725,0.5
52.5225,0.5
52.6725,0.5
52.8225,0.5
52.9725,0.5
53.1225,0.5
53.2725,0.5
53.4225,0.5
53.5725,0.5
53.7225,0.5
53.8725,0.5
54.0225,0.5
54.1725,0.5
54.3225,0.5
54.4725,0.5
54.6225,0.5
54.7725,0.5
54.9225,0.5
55.0725,0.5
55.2225,0.5
55.3725,0.5
55.5225,0.5
55.6725,0.5
55.8225,0.5
55.9725,0.5
56.1225,0.5
56.2725,0.5
56.4225,0.5
56.5725,0.5
56.7225,0.5
56.8725,0.5
57.0225,0.5
57.1725,0.5
57.3225,0.5
57.4725,0.5
57.6225,0.5
57.7725,0.5
57.9225,0.5
58.0725,0.5
58.2225,0.5
58.3725,0.5
58.5225,0.5
58.6725,0.5
58.8225,0.5
58.9725,0.5
59.1225,0.5
59.2725,0.5
59.4225,0.5
59.5725,0.5
59.7225,0.5
59.8725,0.5
60.0225,0.5
60.1725,0.5
60.3225,0.5
60.4725,0.5
60.6225,0.5
60.7725,0.5
60.9225,0.5
61.0725,0.5
61.2225,0.5
61.3725,0.5
61.5225,0.5
61.6725,0.5
61.8225,0.5
61.9725,0.5
62.1225,0.5
62.2725,0.5
62.4225,0.5
62.5725,0.5
62.7225,0.5
62.8725,0.5
63.0225,0.5
63.1725,0.5
63.3225,0.5
63.4725,0.5
63.6225,0.5
63.7725,0.5
63.9225,0.5
64.0725,0.5
64.2225,0.5
64.3725,0.5
64.5225,0.5
64.6725,0.5
64.8225,0.5
64.9725,0.5
65.1225,0.5
65.2725,0.5
65.4225,0.5
65.5725,0.5
65.7225,0.5
65.8725,0.5
66.0225,0.5
66.1725,0.5
66.3225,0.5
66.4725,0.5
66.6225,0.5
66.7725,0.5
66.9225,0.5
67.0725,0.5
67.2225,0.5
67.3725,0.5
67.5225,0.5
67.6725,0.5
67.8225,0.5
67.9725,0.5
68.1225,0.5
68.2725,0.5
68.4225,0.5
68.5725,0.5
68.7225,0.5
68.8725,0.5
69.0225,0.5
69.1725,0.5
69.3225,0.5
69.4725,0.5
69.6225,0.5
69.7725,0.5
69.9225,0.5
70.0725,0.5
70.2225,0.5
70.3725,0.5
70.5225,0.5
70.6725,0.5
70.8225,0.5
70.9725,0.5
71.1225,0.5
71.2725,0.5
71.4225,0.5
71.5725,0.5
71.7225,0.5
71.8725,0.5
72.0225,0.5
72.1725,0.5
72.3225,0.500001
72.4725,0.502126
72.6225,1.79542
72.7725,135.055
72.9225,2383.49
73.0725,7196.27
73.2225,3705.3
73.3725,325.726
73.5225,5.36786
73.6725,0.512423
73.8225,0.500005
73.9725,0.5
74.1225,0.5
74.2725,0.5
74.4225,0.5
74.5725,0.5
74.7225,0.5
74.8725,0.5
75.0225,0.5
75.1725,0.5
75.3225,0.5
75.4725,0.5
75.6225,0.5
75.7725,0.5