File: chaaben_2006/xrd/curve_2_fit.dat
32.4225,0.0
32.5725,0.0
32.7225,0.0
32.8725,0.0
33.0225,0.0
33.1725,0.0
33.3225,0.0
33.4725,0.0
33.6225,0.0
33.7725,0.0
33.9225,0.0
34.0725,0.0
34.2225,0.0
34.3725,0.0
34.5225,0.0
34.6725,0.0
34.8225,0.0
34.9725,0.0
35.1225,0.0
35.2725,0.0
35.4225,0.0
35.5725,0.0
35.7225,0.0
35.8725,0.0
36.0225,0.0
36.1725,0.0
36.3225,0.0
36.4725,0.0
36.6225,0.0
36.7725,0.0
36.9225,0.0
37.0725,0.0
37.2225,0.0
37.3725,0.0
37.5225,0.0
37.6725,0.0
37.8225,0.0
37.9725,0.0
38.1225,0.0
38.2725,0.0
38.4225,0.0
38.5725,0.0
38.7225,0.0
38.8725,0.0
39.0225,0.0
39.1725,0.0
39.3225,0.0
39.4725,0.0
39.6225,0.0
39.7725,0.0
39.9225,0.0
40.0725,0.0
40.2225,0.0
40.3725,0.0
40.5225,0.0
40.6725,0.0
40.8225,0.0
40.9725,0.0
41.1225,0.0
41.2725,0.0
41.4225,0.0
41.5725,0.0
41.7225,0.0
41.8725,0.0
42.0225,0.0
42.1725,0.0
42.3225,0.0
42.4725,0.0
42.6225,0.0
42.7725,0.0
42.9225,0.0
43.0725,0.0
43.2225,0.0
43.3725,0.0
43.5225,0.0
43.6725,0.0
43.8225,0.0
43.9725,0.0
44.1225,0.0
44.2725,0.0
44.4225,0.0
44.5725,0.0
44.7225,0.0
44.8725,0.0
45.0225,0.0
45.1725,0.0
45.3225,0.0
45.4725,0.0
45.6225,0.0
45.7725,0.0
45.9225,0.0
46.0725,0.0
46.2225,0.0
46.3725,0.0
46.5225,0.0
46.6725,0.0
46.8225,0.0
46.9725,0.0
47.1225,0.0
47.2725,0.0
47.4225,0.0
47.5725,0.0
47.7225,0.0
47.8725,0.0
48.0225,0.0
48.1725,0.0
48.3225,0.0
48.4725,0.0
48.6225,0.0
48.7725,0.0
48.9225,0.0
49.0725,0.0
49.2225,0.0
49.3725,0.0
49.5225,0.0
49.6725,0.0
49.8225,0.0
49.9725,0.0
50.1225,0.0
50.2725,0.0
50.4225,0.0
50.5725,0.0
50.7225,0.0
50.8725,0.0
51.0225,0.0
51.1725,0.0
51.3225,0.0
51.4725,0.0
51.6225,0.0
51.7725,0.0
51.9225,0.0
52.0725,0.0
52.2225,0.0
52.3725,0.0
52.5225,0.0
52.6725,0.0
52.8225,0.0
52.9725,0.0
53.1225,0.0
53.2725,0.0
53.4225,0.0
53.5725,0.0
53.7225,0.0
53.8725,0.0
54.0225,0.0
54.1725,0.0
54.3225,0.0
54.4725,0.0
54.6225,0.0
54.7725,0.0
54.9225,0.0
55.0725,0.0
55.2225,0.0
55.3725,0.0
55.5225,0.0
55.6725,0.0
55.8225,0.0
55.9725,0.0
56.1225,0.0
56.2725,0.0
56.4225,0.0
56.5725,0.0
56.7225,0.0
56.8725,0.0
57.0225,0.0
57.1725,0.0
57.3225,0.0
57.4725,0.0
57.6225,0.0
57.7725,0.0
57.9225,0.0
58.0725,0.0
58.2225,0.0
58.3725,0.0
58.5225,0.0
58.6725,0.0
58.8225,0.0
58.9725,0.0
59.1225,0.0
59.2725,0.0
59.4225,0.0
59.5725,0.0
59.7225,0.0
59.8725,0.0
60.0225,0.0
60.1725,0.0
60.3225,0.0
60.4725,0.0
60.6225,0.0
60.7725,0.0
60.9225,0.0
61.0725,0.0
61.2225,0.0
61.3725,0.0
61.5225,0.0
61.6725,0.0
61.8225,0.0
61.9725,0.0
62.1225,0.0
62.2725,0.0
62.4225,0.0
62.5725,0.0
62.7225,0.0
62.8725,0.0
63.0225,0.0
63.1725,0.0
63.3225,0.0
63.4725,0.0
63.6225,0.0
63.7725,0.0
63.9225,0.0
64.0725,0.0
64.2225,0.0
64.3725,0.0
64.5225,0.0
64.6725,0.0
64.8225,0.0
64.9725,0.0
65.1225,0.0
65.2725,0.0
65.4225,0.0
65.5725,0.0
65.7225,0.0
65.8725,0.0
66.0225,0.0
66.1725,0.0
66.3225,0.0
66.4725,0.0
66.6225,0.0
66.7725,0.0
66.9225,0.0
67.0725,0.0
67.2225,0.0
67.3725,0.0
67.5225,0.0
67.6725,0.0
67.8225,0.0
67.9725,0.0
68.1225,0.0
68.2725,0.0
68.4225,0.0
68.5725,0.0
68.7225,0.0
68.8725,1.03119e-300
69.0225,1.72389e-279
69.1725,4.91374e-259
69.3225,2.38807e-239
69.4725,1.97886e-220
69.6225,2.79586e-202
69.7725,6.73517e-185
69.9225,2.7664e-168
70.0725,1.93737e-152
70.2225,2.31337e-137
70.3725,4.70988e-123
70.5225,1.63496e-109
70.6725,9.67692e-97
70.8225,9.76562e-85
70.9725,1.68033e-73
71.1225,4.92974e-63
71.2725,2.46595e-53
71.4225,2.10319e-44
71.5725,3.05848e-36
71.7225,7.58343e-29
71.8725,3.20596e-22
72.0225,2.31091e-16
72.1725,2.84015e-11
72.3225,5.95157e-07
72.4725,0.00212645
72.6225,1.29542
72.7725,134.555
72.9225,2382.99
73.0725,7195.77
73.2225,3704.8
73.3725,325.226
73.5225,4.86786
73.6725,0.0124229
73.8225,5.40558e-06
73.9725,4.01046e-10
74.1225,5.07315e-15
74.2725,1.0942e-20
74.4225,4.02388e-27
74.5725,2.52306e-34
74.7225,2.69738e-42
74.8725,4.91689e-51
75.0225,1.52817e-60
75.1725,8.09814e-71
75.3225,7.31698e-82
75.4725,1.12723e-93
75.6225,2.9609e-106
75.7725,1.32608e-119