File: chaaben_2006/xrd/curve_1_fit.dat
32.4225,1.88274e-92
32.5725,2.12709e-80
32.7225,3.78757e-69
32.8725,1.06295e-58
33.0225,4.70158e-49
33.1725,3.27758e-40
33.3225,3.60115e-32
33.4725,6.23603e-25
33.6225,1.70197e-18
33.7725,7.32111e-13
33.9225,4.96339e-08
34.0725,0.000530346
34.2225,0.893138
34.3725,237.059
34.5225,9916.81
34.6725,65383.3
34.8225,67942.3
34.9725,11127.3
35.1225,287.225
35.2725,1.1685
35.4225,0.000749234
35.5725,7.57152e-08
35.7225,1.20594e-12
35.8725,3.02726e-18
36.0225,1.19771e-24
36.1725,7.46845e-32
36.3225,7.33988e-40
36.4725,1.13691e-48
36.6225,2.7755e-58
36.7725,1.06791e-68
36.9225,6.476e-80
37.0725,6.18952e-92
37.2225,9.32366e-105
37.3725,2.21357e-118
37.5225,8.28286e-133
37.6725,4.88478e-148
37.8225,4.54034e-164
37.9725,6.65135e-181
38.1225,1.53571e-198
38.2725,5.58842e-217
38.4225,3.20513e-236
38.5725,2.89722e-256
38.7225,4.12758e-277
38.8725,9.26806e-299
39.0225,0.0
39.1725,0.0
39.3225,0.0
39.4725,0.0
39.6225,0.0
39.7725,0.0
39.9225,0.0
40.0725,0.0
40.2225,0.0
40.3725,0.0
40.5225,0.0
40.6725,0.0
40.8225,0.0
40.9725,0.0
41.1225,0.0
41.2725,0.0
41.4225,0.0
41.5725,0.0
41.7225,0.0
41.8725,0.0
42.0225,0.0
42.1725,0.0
42.3225,0.0
42.4725,0.0
42.6225,0.0
42.7725,0.0
42.9225,0.0
43.0725,0.0
43.2225,0.0
43.3725,0.0
43.5225,0.0
43.6725,0.0
43.8225,0.0
43.9725,0.0
44.1225,0.0
44.2725,0.0
44.4225,0.0
44.5725,0.0
44.7225,0.0
44.8725,0.0
45.0225,0.0
45.1725,0.0
45.3225,0.0
45.4725,0.0
45.6225,0.0
45.7725,0.0
45.9225,0.0
46.0725,0.0
46.2225,0.0
46.3725,0.0
46.5225,0.0
46.6725,0.0
46.8225,0.0
46.9725,0.0
47.1225,0.0
47.2725,0.0
47.4225,0.0
47.5725,0.0
47.7225,0.0
47.8725,0.0
48.0225,0.0
48.1725,0.0
48.3225,0.0
48.4725,0.0
48.6225,0.0
48.7725,0.0
48.9225,0.0
49.0725,0.0
49.2225,0.0
49.3725,0.0
49.5225,0.0
49.6725,0.0
49.8225,0.0
49.9725,0.0
50.1225,0.0
50.2725,0.0
50.4225,0.0
50.5725,0.0
50.7225,0.0
50.8725,0.0
51.0225,0.0
51.1725,0.0
51.3225,0.0
51.4725,0.0
51.6225,0.0
51.7725,0.0
51.9225,0.0
52.0725,0.0
52.2225,0.0
52.3725,0.0
52.5225,0.0
52.6725,0.0
52.8225,0.0
52.9725,0.0
53.1225,0.0
53.2725,0.0
53.4225,0.0
53.5725,0.0
53.7225,0.0
53.8725,0.0
54.0225,0.0
54.1725,0.0
54.3225,0.0
54.4725,0.0
54.6225,0.0
54.7725,0.0
54.9225,0.0
55.0725,0.0
55.2225,0.0
55.3725,0.0
55.5225,0.0
55.6725,0.0
55.8225,0.0
55.9725,0.0
56.1225,0.0
56.2725,0.0
56.4225,0.0
56.5725,0.0
56.7225,0.0
56.8725,0.0
57.0225,0.0
57.1725,0.0
57.3225,0.0
57.4725,0.0
57.6225,0.0
57.7725,0.0
57.9225,0.0
58.0725,0.0
58.2225,0.0
58.3725,0.0
58.5225,0.0
58.6725,0.0
58.8225,0.0
58.9725,0.0
59.1225,0.0
59.2725,0.0
59.4225,0.0
59.5725,0.0
59.7225,0.0
59.8725,0.0
60.0225,0.0
60.1725,0.0
60.3225,0.0
60.4725,0.0
60.6225,0.0
60.7725,0.0
60.9225,0.0
61.0725,0.0
61.2225,0.0
61.3725,0.0
61.5225,0.0
61.6725,0.0
61.8225,0.0
61.9725,0.0
62.1225,0.0
62.2725,0.0
62.4225,0.0
62.5725,0.0
62.7225,0.0
62.8725,0.0
63.0225,0.0
63.1725,0.0
63.3225,0.0
63.4725,0.0
63.6225,0.0
63.7725,0.0
63.9225,0.0
64.0725,0.0
64.2225,0.0
64.3725,0.0
64.5225,0.0
64.6725,0.0
64.8225,0.0
64.9725,0.0
65.1225,0.0
65.2725,0.0
65.4225,0.0
65.5725,0.0
65.7225,0.0
65.8725,0.0
66.0225,0.0
66.1725,0.0
66.3225,0.0
66.4725,0.0
66.6225,0.0
66.7725,0.0
66.9225,0.0
67.0725,0.0
67.2225,0.0
67.3725,0.0
67.5225,0.0
67.6725,0.0
67.8225,0.0
67.9725,0.0
68.1225,0.0
68.2725,0.0
68.4225,0.0
68.5725,0.0
68.7225,0.0
68.8725,0.0
69.0225,0.0
69.1725,0.0
69.3225,0.0
69.4725,0.0
69.6225,0.0
69.7725,0.0
69.9225,0.0
70.0725,0.0
70.2225,0.0
70.3725,0.0
70.5225,0.0
70.6725,0.0
70.8225,0.0
70.9725,0.0
71.1225,0.0
71.2725,0.0
71.4225,0.0
71.5725,0.0
71.7225,0.0
71.8725,0.0
72.0225,0.0
72.1725,0.0
72.3225,0.0
72.4725,0.0
72.6225,0.0
72.7725,0.0
72.9225,0.0
73.0725,0.0
73.2225,0.0
73.3725,0.0
73.5225,0.0
73.6725,0.0
73.8225,0.0
73.9725,0.0
74.1225,0.0
74.2725,0.0
74.4225,0.0
74.5725,0.0
74.7225,0.0
74.8725,0.0
75.0225,0.0
75.1725,0.0
75.3225,0.0
75.4725,0.0
75.6225,0.0
75.7725,0.0