File: xiao_2004/xrd/curve_total_fit.dat
29.3029,141.995
29.5029,148.674
29.7029,156.687
29.9029,166.451
30.1029,178.564
30.3029,193.914
30.5029,213.876
30.7029,240.666
30.9029,278.059
31.1029,332.92
31.3029,418.812
31.5029,565.539
31.7029,848.373
31.9029,1494.44
32.1029,3294.6
32.3029,6871.05
32.5029,4384.65
32.7029,1929.84
32.9029,1101.56
33.1029,798.702
33.3029,697.907
33.5029,713.512
33.7029,846.704
33.9029,1182.02
34.1029,2003.53
34.3029,4028.62
34.5029,5660.58
34.7029,3254.1
34.9029,1720.4
35.1029,1136.36
35.3029,920.372
35.5029,877.869
35.7029,959.371
35.9029,1185.26
36.1029,1655.05
36.3029,2638.69
36.5029,4790.95
36.7029,8431.53
36.9029,8324.27
37.1029,4665.97
37.3029,2532.93
37.5029,1536.97
37.7029,1032.49
37.9029,749.275
38.1029,576.186
38.3029,463.122
38.5029,385.306
38.7029,329.469
38.9029,288.026
39.1029,256.397
39.3029,231.689
39.5029,212.003
39.7029,196.051
39.9029,182.934
40.1029,172.009
40.3029,162.808
40.5029,154.981
40.7029,148.263
40.9029,142.452
41.1029,137.388
41.3029,132.947
41.5029,129.029
41.7029,125.554
41.9029,122.456
42.1029,119.682
42.3029,117.187
42.5029,114.935
42.7029,112.895
42.9029,111.04
43.1029,109.348
43.3029,107.801
43.5029,106.382
43.7029,105.077
43.9029,103.874
44.1029,102.763
44.3029,101.734
44.5029,100.78
44.7029,99.8924
44.9029,99.066
45.1029,98.2951
45.3029,97.5747
45.5029,96.9004
45.7029,96.2684
45.9029,95.6751
46.1029,95.1174
46.3029,94.5925
46.5029,94.0978
46.7029,93.631
46.9029,93.1901
47.1029,92.773
47.3029,92.3783
47.5029,92.0041
47.7029,91.6492
47.9029,91.3122
48.1029,90.9919
48.3029,90.6872
48.5029,90.3971
48.7029,90.1207
48.9029,89.8572
49.1029,89.6056
49.3029,89.3654
49.5029,89.1358
49.7029,88.9163
49.9029,88.7061
50.1029,88.5049
50.3029,88.312
50.5029,88.1271
50.7029,87.9497
50.9029,87.7793
51.1029,87.6157
51.3029,87.4585
51.5029,87.3073
51.7029,87.1618
51.9029,87.0218
52.1029,86.8869
52.3029,86.757
52.5029,86.6317
52.7029,86.5109
52.9029,86.3943
53.1029,86.2818
53.3029,86.1732
53.5029,86.0682
53.7029,85.9668
53.9029,85.8687
54.1029,85.7739
54.3029,85.6821
54.5029,85.5933
54.7029,85.5073
54.9029,85.424
55.1029,85.3432
55.3029,85.265
55.5029,85.1891
55.7029,85.1155
55.9029,85.0441
56.1029,84.9749
56.3029,84.9076
56.5029,84.8423
56.7029,84.7788
56.9029,84.7172
57.1029,84.6573
57.3029,84.599
57.5029,84.5424
57.7029,84.4873
57.9029,84.4337
58.1029,84.3815
58.3029,84.3307
58.5029,84.2813
58.7029,84.2331
58.9029,84.1862
59.1029,84.1405
59.3029,84.096
59.5029,84.0525
59.7029,84.0102
59.9029,83.9689
60.1029,83.9286
60.3029,83.8893
60.5029,83.851
60.7029,83.8136
60.9029,83.777
61.1029,83.7414
61.3029,83.7065
61.5029,83.6725
61.7029,83.6393
61.9029,83.6068
62.1029,83.575
62.3029,83.544
62.5029,83.5137
62.7029,83.484
62.9029,83.455
63.1029,83.4266
63.3029,83.3988
63.5029,83.3717
63.7029,83.3451
63.9029,83.3191
64.1029,83.2936
64.3029,83.2687
64.5029,83.2442
64.7029,83.2203
64.9029,83.1969
65.1029,83.1739
65.3029,83.1515
65.5029,83.1294
65.7029,83.1078
65.9029,83.0867
66.1029,83.0659
66.3029,83.0456
66.5029,83.0256
66.7029,83.006
66.9029,82.9868
67.1029,82.968
67.3029,82.9496
67.5029,82.9314
67.7029,82.9136
67.9029,82.8962
68.1029,82.8791
68.3029,82.8622
68.5029,82.8457
68.7029,82.8295
68.9029,82.8136
69.1029,82.798
69.3029,82.7826
69.5029,82.7675
69.7029,82.7527
69.9029,82.7382
70.1029,82.7239
70.3029,82.7099
70.5029,82.6969
70.7029,82.6884
70.9029,82.7041
71.1029,82.8294
71.3029,83.3737
71.5029,85.2521
71.7029,90.6347
71.9029,103.495
72.1029,128.975
72.3029,170.34
72.5029,224.065
72.7029,276.964
72.9029,310.155
73.1029,309.616
73.3029,275.581
73.5029,222.377
73.7029,168.848
73.9029,127.916
74.1029,102.846
74.3029,90.2514
74.5029,84.9949
74.7029,83.1554
74.9029,82.6094