File: xiao_2004/xrd/curve_2_fit.dat
29.3029,0.0
29.5029,0.0
29.7029,0.0
29.9029,0.0
30.1029,0.0
30.3029,0.0
30.5029,0.0
30.7029,0.0
30.9029,0.0
31.1029,0.0
31.3029,0.0
31.5029,0.0
31.7029,0.0
31.9029,0.0
32.1029,0.0
32.3029,0.0
32.5029,0.0
32.7029,0.0
32.9029,0.0
33.1029,0.0
33.3029,0.0
33.5029,0.0
33.7029,0.0
33.9029,0.0
34.1029,0.0
34.3029,0.0
34.5029,0.0
34.7029,0.0
34.9029,0.0
35.1029,0.0
35.3029,0.0
35.5029,0.0
35.7029,0.0
35.9029,0.0
36.1029,0.0
36.3029,0.0
36.5029,0.0
36.7029,0.0
36.9029,0.0
37.1029,0.0
37.3029,0.0
37.5029,0.0
37.7029,0.0
37.9029,0.0
38.1029,0.0
38.3029,0.0
38.5029,0.0
38.7029,0.0
38.9029,0.0
39.1029,0.0
39.3029,0.0
39.5029,0.0
39.7029,0.0
39.9029,0.0
40.1029,0.0
40.3029,0.0
40.5029,0.0
40.7029,0.0
40.9029,0.0
41.1029,0.0
41.3029,0.0
41.5029,0.0
41.7029,0.0
41.9029,0.0
42.1029,0.0
42.3029,0.0
42.5029,0.0
42.7029,0.0
42.9029,0.0
43.1029,0.0
43.3029,0.0
43.5029,0.0
43.7029,0.0
43.9029,0.0
44.1029,0.0
44.3029,0.0
44.5029,0.0
44.7029,0.0
44.9029,0.0
45.1029,0.0
45.3029,0.0
45.5029,0.0
45.7029,0.0
45.9029,0.0
46.1029,0.0
46.3029,0.0
46.5029,0.0
46.7029,0.0
46.9029,0.0
47.1029,0.0
47.3029,0.0
47.5029,0.0
47.7029,0.0
47.9029,0.0
48.1029,0.0
48.3029,0.0
48.5029,0.0
48.7029,0.0
48.9029,0.0
49.1029,0.0
49.3029,0.0
49.5029,0.0
49.7029,0.0
49.9029,0.0
50.1029,0.0
50.3029,0.0
50.5029,0.0
50.7029,0.0
50.9029,0.0
51.1029,0.0
51.3029,0.0
51.5029,0.0
51.7029,0.0
51.9029,0.0
52.1029,0.0
52.3029,0.0
52.5029,0.0
52.7029,0.0
52.9029,0.0
53.1029,0.0
53.3029,0.0
53.5029,0.0
53.7029,1.146e-321
53.9029,3.90554e-315
54.1029,1.55579e-308
54.3029,5.28118e-302
54.5029,1.52765e-295
54.7029,3.76558e-289
54.9029,7.90955e-283
55.1029,1.41574e-276
55.3029,2.15938e-270
55.5029,2.80665e-264
55.7029,3.10856e-258
55.9029,2.93389e-252
56.1029,2.35961e-246
56.3029,1.61715e-240
56.5029,9.44438e-235
56.7029,4.70012e-229
56.9029,1.99323e-223
57.1029,7.2031e-218
57.3029,2.21816e-212
57.5029,5.82078e-207
57.7029,1.30161e-201
57.9029,2.48024e-196
58.1029,4.02736e-191
58.3029,5.57261e-186
58.5029,6.57068e-181
58.7029,6.60199e-176
58.9029,5.65266e-171
59.1029,4.12423e-166
59.3029,2.56417e-161
59.5029,1.35851e-156
59.7029,6.13326e-152
59.9029,2.35957e-147
60.1029,7.73549e-143
60.3029,2.161e-138
60.5029,5.14441e-134
60.7029,1.04359e-129
60.9029,1.804e-125
61.1029,2.65739e-121
61.3029,3.3357e-117
61.5029,3.56806e-113
61.7029,3.25229e-109
61.9029,2.52616e-105
62.1029,1.67203e-101
62.3029,9.43062e-98
62.5029,4.53262e-94
62.7029,1.8564e-90
62.9029,6.47898e-87
63.1029,1.92688e-83
63.3029,4.88332e-80
63.5029,1.0546e-76
63.7029,1.94078e-73
63.9029,3.04351e-70
64.1029,4.06713e-67
64.3029,4.63141e-64
64.5029,4.49419e-61
64.7029,3.71623e-58
64.9029,2.61858e-55
65.1029,1.57233e-52
65.3029,8.04512e-50
65.5029,3.5078e-47
65.7029,1.30332e-44
65.9029,4.12647e-42
66.1029,1.11332e-39
66.3029,2.55961e-37
66.5029,5.01466e-35
66.7029,8.37185e-33
66.9029,1.19101e-30
67.1029,1.44384e-28
67.3029,1.49155e-26
67.5029,1.31301e-24
67.7029,9.84949e-23
67.9029,6.29609e-21
68.1029,3.42958e-19
68.3029,1.59193e-17
68.5029,6.2968e-16
68.7029,2.12241e-14
68.9029,6.09607e-13
69.1029,1.49205e-11
69.3029,3.11195e-10
69.5029,5.53085e-09
69.7029,8.37655e-08
69.9029,1.08106e-06
70.1029,1.18891e-05
70.3029,0.00011142
70.5029,0.000889788
70.7029,0.00605514
70.9029,0.0351135
71.1029,0.173515
71.3029,0.730658
71.5029,2.62182
71.7029,8.01687
71.9029,20.8891
72.1029,46.3818
72.3029,87.7583
72.5029,141.495
72.7029,194.405
72.9029,227.608
73.1029,227.08
73.3029,193.056
73.5029,139.863
73.7029,86.3442
73.9029,45.4231
74.1029,20.3626
74.3029,7.77862
74.5029,2.53212
74.7029,0.702393
74.9029,0.166031