File: xiao_2004/xrd/curve_1_fit.dat
29.3029,12.7071
29.5029,13.748
29.7029,14.9221
29.9029,16.2531
30.1029,17.7703
30.3029,19.51
30.5029,21.5179
30.7029,23.852
30.9029,26.5869
31.1029,29.8196
31.3029,33.6784
31.5029,38.3358
31.7029,44.0276
31.9029,51.0832
32.1029,59.9742
32.3029,71.3934
32.5029,86.3929
32.7029,106.63
32.9029,134.833
33.1029,175.747
33.3029,238.18
33.5029,339.893
33.7029,520.617
33.9029,881.377
34.1029,1713.88
34.3029,3739.04
34.5029,5361.4
34.7029,2935.29
34.9029,1369.98
35.1029,738.394
35.3029,451.725
35.5029,302.273
35.7029,215.615
35.9029,161.222
36.1029,124.962
36.3029,99.6278
36.5029,81.2522
36.7029,67.5107
36.9029,56.9714
37.1029,48.7141
37.3029,42.126
37.5029,36.7866
37.7029,32.3998
37.9029,28.7521
38.1029,25.6866
38.3029,23.0858
38.5029,20.8605
38.7029,18.9417
38.9029,17.2757
39.1029,15.82
39.3029,14.5407
39.5029,13.4105
39.7029,12.4069
39.9029,11.5119
40.1029,10.7103
40.3029,9.98949
40.5029,9.33906
40.7029,8.75013
40.9029,8.21516
41.1029,7.72778
41.3029,7.2825
41.5029,6.87461
41.7029,6.50004
41.9029,6.15525
42.1029,5.83718
42.3029,5.54314
42.5029,5.27076
42.7029,5.01797
42.9029,4.78293
43.1029,4.56402
43.3029,4.3598
43.5029,4.16899
43.7029,3.99043
43.9029,3.82309
44.1029,3.66607
44.3029,3.51852
44.5029,3.3797
44.7029,3.24894
44.9029,3.12562
45.1029,3.00918
45.3029,2.89914
45.5029,2.79502
45.7029,2.69641
45.9029,2.60293
46.1029,2.51422
46.3029,2.42997
46.5029,2.34989
46.7029,2.2737
46.9029,2.20116
47.1029,2.13203
47.3029,2.06611
47.5029,2.0032
47.7029,1.94312
47.9029,1.8857
48.1029,1.83079
48.3029,1.77824
48.5029,1.72793
48.7029,1.67971
48.9029,1.63349
49.1029,1.58915
49.3029,1.54659
49.5029,1.50572
49.7029,1.46645
49.9029,1.42869
50.1029,1.39238
50.3029,1.35743
50.5029,1.32378
50.7029,1.29136
50.9029,1.26012
51.1029,1.23
51.3029,1.20095
51.5029,1.17292
51.7029,1.14585
51.9029,1.11972
52.1029,1.09446
52.3029,1.07005
52.5029,1.04645
52.7029,1.02362
52.9029,1.00153
53.1029,0.980148
53.3029,0.959443
53.5029,0.939386
53.7029,0.919953
53.9029,0.901115
54.1029,0.882851
54.3029,0.865136
54.5029,0.847949
54.7029,0.83127
54.9029,0.815077
55.1029,0.799353
55.3029,0.78408
55.5029,0.76924
55.7029,0.754818
55.9029,0.740797
56.1029,0.727164
56.3029,0.713903
56.5029,0.701002
56.7029,0.688447
56.9029,0.676227
57.1029,0.664329
57.3029,0.652742
57.5029,0.641456
57.7029,0.63046
57.9029,0.619744
58.1029,0.6093
58.3029,0.599117
58.5029,0.589187
58.7029,0.579502
58.9029,0.570054
59.1029,0.560835
59.3029,0.551838
59.5029,0.543056
59.7029,0.534481
59.9029,0.526109
60.1029,0.517931
60.3029,0.509942
60.5029,0.502137
60.7029,0.49451
60.9029,0.487055
61.1029,0.479768
61.3029,0.472643
61.5029,0.465675
61.7029,0.458861
61.9029,0.452194
62.1029,0.445673
62.3029,0.439291
62.5029,0.433045
62.7029,0.426931
62.9029,0.420946
63.1029,0.415087
63.3029,0.409348
63.5029,0.403728
63.7029,0.398222
63.9029,0.392829
64.1029,0.387544
64.3029,0.382366
64.5029,0.37729
64.7029,0.372315
64.9029,0.367437
65.1029,0.362655
65.3029,0.357966
65.5029,0.353367
65.7029,0.348855
65.9029,0.34443
66.1029,0.340089
66.3029,0.335829
66.5029,0.331648
66.7029,0.327545
66.9029,0.323518
67.1029,0.319565
67.3029,0.315684
67.5029,0.311872
67.7029,0.30813
67.9029,0.304455
68.1029,0.300844
68.3029,0.297298
68.5029,0.293814
68.7029,0.290391
68.9029,0.287027
69.1029,0.283722
69.3029,0.280473
69.5029,0.27728
69.7029,0.274141
69.9029,0.271055
70.1029,0.268021
70.3029,0.265037
70.5029,0.262103
70.7029,0.259218
70.9029,0.256379
71.1029,0.253588
71.3029,0.250841
71.5029,0.248139
71.7029,0.24548
71.9029,0.242864
72.1029,0.24029
72.3029,0.237756
72.5029,0.235262
72.7029,0.232807
72.9029,0.23039
73.1029,0.228011
73.3029,0.225668
73.5029,0.223362
73.7029,0.22109
73.9029,0.218853
74.1029,0.21665
74.3029,0.21448
74.5029,0.212342
74.7029,0.210236
74.9029,0.208162