File: xiao_2004/xrd/xrd.csv
29.1688, 155.125
29.5504, 190.028
29.9538, 201.662
30.3463, 220.568
30.7388, 219.114
31.1258, 310.249
31.2621, 424.169
31.5238, 500.277
31.6873, 685.942
31.7925, 823.269
31.8345, 1031.58
31.8672, 1167.31
31.8999, 1215.79
31.9326, 1485.32
31.9408, 1539.61
31.9653, 1811.08
31.9735, 1666.14
31.9981, 1917.73
32.0144, 2231.86
32.0373, 2330.75
32.0471, 2493.63
32.0635, 2649.24
32.0798, 2755.4
32.0962, 3315.79
32.0962, 3176.18
32.0962, 3036.57
32.0962, 2898.89
32.1289, 3703.6
32.1289, 3563.99
32.1289, 3424.38
32.1616, 4335.73
32.1616, 4196.12
32.1616, 4056.51
32.1616, 3918.84
32.1779, 4797.23
32.1779, 4657.62
32.1779, 4518.01
32.1943, 5347.92
32.1943, 5208.31
32.1943, 5068.7
32.1943, 4929.09
32.2107, 5507.89
32.227, 5755.12
32.227, 5615.51
32.2434, 6126.45
32.2434, 5986.84
32.2504, 6238.23
32.2597, 6356.23
32.3906, 6513.78
32.3906, 6367.87
32.3971, 6083.99
32.4069, 6135.18
32.4233, 5867.59
32.4396, 5768.7
32.4396, 5629.09
32.4396, 5489.47
32.456, 5347.92
32.456, 5208.31
32.4723, 5114.27
32.4723, 4974.65
32.4887, 4832.13
32.4887, 4692.52
32.5214, 4498.61
32.5214, 4359
32.5214, 4219.39
32.5214, 4079.78
32.5377, 3936.29
32.5377, 3796.68
32.5541, 3695.84
32.5541, 3556.23
32.5541, 3416.62
32.5541, 3277.01
32.5868, 3032.69
32.5868, 2895.01
32.6195, 2604.16
32.6359, 2688.5
32.6522, 2497.51
32.6686, 2348.2
32.6686, 2208.59
32.6849, 2059.28
32.7013, 1917.73
32.7176, 1774.24
32.7503, 1559
32.783, 1460.11
32.8877, 1281.33
32.9139, 1116.9
32.9466, 938.504
33.1592, 906.994
33.4536, 905.54
33.7643, 1023.82
33.8052, 1155.68
33.8624, 1359.28
33.8951, 1421.33
33.9671, 1618.73
33.9933, 1783.93
34.026, 1822.71
34.0652, 2086.43
34.0914, 2148.48
34.1077, 2377.29
34.1241, 2466.48
34.1568, 2691.41
34.1802, 2852.63
34.2059, 3017.17
34.2222, 3055.96
34.2386, 3284.76
34.2549, 3373.96
34.2876, 3920.78
34.2876, 3781.16
34.2876, 3641.55
34.3072, 3981.66
34.3203, 4238.78
34.3203, 4099.17
34.3367, 4558.73
34.353, 4621.26
34.3694, 4867.04
34.3694, 4727.42
34.3857, 4998.89
34.4315, 5278.89
34.4675, 5378.95
34.4745, 5488.64
34.5384, 5293.63
34.5656, 5044.46
34.582, 4901.94
34.5984, 4715.79
34.5984, 4576.18
34.6147, 4428.81
34.6147, 4289.2
34.6311, 4128.25
34.6474, 3951.8
34.6801, 3850.97
34.6801, 3711.36
34.6801, 3571.75
34.7019, 3463.16
34.7128, 3218.84
34.7292, 2999.72
34.7374, 2577.98
34.7455, 2815.51
34.7455, 2675.9
34.7848, 2516.9
34.8191, 2354.02
34.8437, 2160.11
34.8927, 1984.63
34.9418, 1780.06
34.9745, 1671.47
35.089, 1516.34
35.1217, 1309.83
35.2231, 1198.73
35.4193, 1067.26
35.6123, 1122.23
35.7922, 1259.42
35.9427, 1436.07
35.995, 1593.13
36.0375, 1789.75
36.1029, 2032.62
36.152, 2214.4
36.1847, 2388.92
36.1847, 2127.15
36.2174, 2524.65
36.2501, 2682.69
36.2665, 2900.83
36.2992, 3168.42
36.2992, 3028.81
36.3221, 3315.01
36.3482, 3424.38
36.3809, 3920.78
36.3809, 3781.16
36.3809, 3641.55
36.3973, 4145.71
36.4137, 4607.2
36.4137, 4467.59
36.4137, 4327.98
36.4202, 4669.25
36.4464, 5006.65
36.4464, 4867.04
36.4464, 4731.3
36.4791, 5371.19
36.4791, 5231.58
36.5118, 5890.86
36.5118, 5751.25
36.5118, 5611.63
36.5183, 5951.36
36.5281, 6391.14
36.5281, 6204.99
36.5281, 6065.37
36.5445, 6662.6
36.5445, 6526.87
36.5641, 6769.25
36.5772, 7213.3
36.5772, 7073.68
36.5772, 6934.07
36.5935, 7374.24
36.6099, 7903.6
36.6099, 7763.99
36.6099, 7624.38
36.6099, 7484.76
36.6263, 8229.36
36.6263, 8089.75
36.6426, 8368.98
36.659, 8875.07
36.659, 8735.46
36.659, 8456.23
36.6753, 9063.16
36.6884, 9164.76
36.7407, 9439.34
36.7571, 9526.59
36.8062, 9200.83
36.8062, 9051.52
36.8062, 8911.91
36.8389, 8745.15
36.8389, 8605.54
36.8389, 9241.55
36.8716, 8341.83
36.8781, 8403.88
36.8879, 8031.58
36.8879, 7752.35
36.8934, 7903.6
36.9043, 7570.08
36.9043, 7430.47
36.9043, 7290.86
36.9043, 7153.19
36.937, 6984.49
36.9435, 7093.85
36.9697, 6670.36
36.9697, 6530.75
36.9697, 6391.14
36.986, 6286.43
36.986, 6146.81
36.986, 6007.2
36.986, 5821.05
36.986, 5681.44
37.0024, 5590.3
37.0188, 5448.75
37.0188, 5309.14
37.0351, 5208.31
37.0351, 5068.7
37.0351, 4929.09
37.0351, 4789.47
37.0351, 4649.86
37.0596, 4033.73
37.0678, 4362.88
37.0678, 4223.27
37.0678, 4083.66
37.1005, 3878.12
37.1087, 3977.01
37.1223, 3602.77
37.1332, 3404.99
37.1496, 3310.94
37.1496, 3171.33
37.1987, 2982.27
37.1987, 2842.66
37.2232, 2508.17
37.2314, 2609.97
37.2477, 2423.82
37.2641, 2284.21
37.2641, 2146.54
37.3131, 2042.8
37.3295, 1685.04
37.3622, 1749.03
37.3949, 1586.15
37.4848, 1346.19
37.5421, 1245.36
37.5911, 1140.17
37.6659, 925.485
37.8365, 786.288
37.9313, 642.604
38.1962, 524.515
38.5257, 410.249
38.6901, 328.476
38.9714, 344.765
39.2756, 283.102
39.6714, 244.709
39.9854, 236.565
40.3986, 199.723
40.7115, 166.759
41.0419, 169.668
41.4344, 160.942
41.7647, 128.366
71.4833, 266.814
71.7581, 255.18
72.0819, 192.936
72.3272, 203.601
72.6706, 262.742
73.0631, 304.917
73.4229, 210.388
73.6791, 170.637
74.0171, 114.404
74.4042, 98.4072
74.7869, 77.1745
74.9275, 80.9557