File: sun_1994/xrd_sic_no_anneal/curve_total_fit.dat
14.943,-0.499244
15.033,-0.496068
15.123,-0.481313
15.213,-0.418837
15.303,-0.177824
15.393,0.668795
15.483,3.37523
15.573,11.2428
15.663,32.0204
15.753,81.8106
15.843,189.901
15.933,402.027
16.023,777.242
16.113,1372.88
16.203,2215.94
16.293,3268.67
16.383,4406.38
16.473,5428.73
16.563,6112.57
16.653,6295.33
16.743,6125.94
16.833,5727.34
16.923,5144.7
17.013,4440.1
17.103,3681.71
17.193,2933.13
17.283,2245.08
17.373,1697.89
17.463,3348.84
17.553,793.84
17.643,516.282
17.733,323.371
17.823,194.514
17.913,112.32
18.003,62.21
18.093,32.99
18.183,16.6839
18.273,7.97141
18.363,3.51253
18.453,1.32603
18.543,0.298414
18.633,-0.16459
18.723,-0.364621
18.813,-0.447501
18.903,-0.480439
18.993,-0.492998
19.083,-0.497592
19.173,-0.499204
19.263,-0.499747
19.353,-0.499923
19.443,-0.499977
19.533,-0.499994
19.623,-0.499998
19.713,-0.5
19.803,-0.5
19.893,-0.5
19.983,-0.5
20.073,-0.5
20.163,-0.5
20.253,-0.5
20.343,-0.5
20.433,-0.5
20.523,-0.5
20.613,-0.5
20.703,-0.5
20.793,-0.5
20.883,-0.5
20.973,-0.5
21.063,-0.5
21.153,-0.5
21.243,-0.5
21.333,-0.5
21.423,-0.5
21.513,-0.5
21.603,-0.5
21.693,-0.5
21.783,-0.5
21.873,-0.5
21.963,-0.5
22.053,-0.5
22.143,-0.5
22.233,-0.5
22.323,-0.5
22.413,-0.5
22.503,-0.5
22.593,-0.5
22.683,-0.5
22.773,-0.5
22.863,-0.5
22.953,-0.5
23.043,-0.5
23.133,-0.5
23.223,-0.5
23.313,-0.5
23.403,-0.5
23.493,-0.5
23.583,-0.5
23.673,-0.5
23.763,-0.5
23.853,-0.5
23.943,-0.5
24.033,-0.5
24.123,-0.5
24.213,-0.5
24.303,-0.5
24.393,-0.5
24.483,-0.5
24.573,-0.5
24.663,-0.5
24.753,-0.5
24.843,-0.5
24.933,-0.5
25.023,-0.5
25.113,-0.5
25.203,-0.5
25.293,-0.5
25.383,-0.5
25.473,-0.5
25.563,-0.5
25.653,-0.5
25.743,-0.5
25.833,-0.5
25.923,-0.5
26.013,-0.5
26.103,-0.5
26.193,-0.5
26.283,-0.5
26.373,-0.5
26.463,-0.5
26.553,-0.5
26.643,-0.5
26.733,-0.5
26.823,-0.5
26.913,-0.5
27.003,-0.5
27.093,-0.5
27.183,-0.5
27.273,-0.5
27.363,-0.5
27.453,-0.5
27.543,-0.5
27.633,-0.5
27.723,-0.5
27.813,-0.5
27.903,-0.5
27.993,-0.5
28.083,-0.5
28.173,-0.5
28.263,-0.5
28.353,-0.5
28.443,-0.5
28.533,-0.5
28.623,-0.5
28.713,-0.5
28.803,-0.5
28.893,-0.5
28.983,-0.5
29.073,-0.5
29.163,-0.5
29.253,-0.5
29.343,-0.5
29.433,-0.5
29.523,-0.5
29.613,-0.5
29.703,-0.5
29.793,-0.5
29.883,-0.5
29.973,-0.5
30.063,-0.5
30.153,-0.5
30.243,-0.5
30.333,-0.5
30.423,-0.5
30.513,-0.5
30.603,-0.5
30.693,-0.5
30.783,-0.5
30.873,-0.5
30.963,-0.5
31.053,-0.5
31.143,-0.5
31.233,-0.5
31.323,-0.5
31.413,-0.5
31.503,-0.5
31.593,-0.5
31.683,-0.5
31.773,-0.5
31.863,-0.5
31.953,-0.5
32.043,-0.5
32.133,-0.5
32.223,-0.5
32.313,-0.5
32.403,-0.5
32.493,-0.5
32.583,-0.5
32.673,-0.5
32.763,-0.5
32.853,-0.5
32.943,-0.5
33.033,-0.5
33.123,-0.5
33.213,-0.5
33.303,-0.5
33.393,-0.5
33.483,-0.5
33.573,-0.5
33.663,-0.5
33.753,-0.5
33.843,-0.5
33.933,-0.5
34.023,-0.5
34.113,-0.5
34.203,-0.499999
34.293,-0.499995
34.383,-0.499959
34.473,-0.499712
34.563,-0.498206
34.653,-0.490101
34.743,-0.451663
34.833,-0.291136
34.923,0.298643
35.013,2.20239
35.103,7.59183
35.193,20.9413
35.283,49.7761
35.373,103.822
35.463,191.057
35.553,310.76
35.643,447.063
35.733,568.995
35.823,640.755
35.913,638.465
36.003,562.915
36.093,439.127
36.183,303.061
36.273,184.987
36.363,99.7964
36.453,47.4913
36.543,19.821
36.633,7.11435
36.723,2.02479
36.813,0.240838
36.903,-0.307635
36.993,-0.455799
37.083,-0.491012
37.173,-0.498383
37.263,-0.496221
37.353,-0.125377
37.443,-0.499995
37.533,-0.5
37.623,-0.5
37.713,-0.5
37.803,-0.5
37.893,-0.5
37.983,-0.5
38.073,-0.5
38.163,-0.5
38.253,-0.5
38.343,-0.5
38.433,-0.5
38.523,-0.5
38.613,-0.5
38.703,-0.5
38.793,-0.5
38.883,-0.5
38.973,-0.5
39.063,-0.5
39.153,-0.5
39.243,-0.5
39.293,-0.5