File: sun_1994/xrd_sic_no_anneal/curve_1_fit.dat
14.943,0.000756215
15.033,0.00393221
15.123,0.0186871
15.213,0.0811635
15.303,0.322176
15.393,1.1688
15.483,3.87523
15.573,11.7428
15.663,32.5204
15.753,82.3106
15.843,190.401
15.933,402.527
16.023,777.742
16.113,1373.38
16.203,2216.44
16.293,3269.17
16.383,4406.88
16.473,5429.23
16.563,6113.07
16.653,6295.83
16.743,6126.44
16.833,5727.84
16.923,5145.2
17.013,4440.6
17.103,3682.21
17.193,2933.63
17.283,2245.58
17.373,1651.51
17.463,1166.97
17.553,792.264
17.643,516.782
17.733,323.871
17.823,195.014
17.913,112.82
18.003,62.71
18.093,33.49
18.183,17.1839
18.273,8.47141
18.363,4.01253
18.453,1.82603
18.543,0.798414
18.633,0.33541
18.723,0.135379
18.813,0.0524995
18.903,0.0195608
18.993,0.0070024
19.083,0.00240844
19.173,0.000795888
19.263,0.000252695
19.353,7.7085e-05
19.443,2.25929e-05
19.533,6.36211e-06
19.623,1.72131e-06
19.713,4.4745e-07
19.803,1.11753e-07
19.893,2.68164e-08
19.983,6.18261e-09
20.073,1.36953e-09
20.163,2.91473e-10
20.253,5.96009e-11
20.343,1.17095e-11
20.433,2.21029e-12
20.523,4.00856e-13
20.613,6.98484e-14
20.703,1.16937e-14
20.793,1.88095e-15
20.883,2.9069e-16
20.973,4.3163e-17
21.063,6.15773e-18
21.153,8.44031e-19
21.243,1.11154e-19
21.333,1.40643e-20
21.423,1.70978e-21
21.513,1.99706e-22
21.603,2.24114e-23
21.693,2.41644e-24
21.783,2.50329e-25
21.873,2.49158e-26
21.963,2.38268e-27
22.053,2.1892e-28
22.143,1.93256e-29
22.233,1.63912e-30
22.323,1.33572e-31
22.413,1.04579e-32
22.503,7.86697e-34
22.593,5.68586e-35
22.683,3.94833e-36
22.773,2.63426e-37
22.863,1.68862e-38
22.953,1.04e-39
23.043,6.1541e-41
23.133,3.49883e-42
23.223,1.91122e-43
23.313,1.00305e-44
23.403,5.05787e-46
23.493,2.45041e-47
23.583,1.14061e-48
23.673,5.10113e-50
23.763,2.19191e-51
23.853,9.04912e-53
23.943,3.58937e-54
24.033,1.36791e-55
24.123,5.00873e-57
24.213,1.76208e-58
24.303,5.95594e-60
24.393,1.93421e-61
24.483,6.03511e-63
24.573,1.80924e-64
24.663,5.21115e-66
24.753,1.44211e-67
24.843,3.83437e-69
24.933,9.79528e-71
25.023,2.40419e-72
25.113,5.66953e-74
25.203,1.28456e-75
25.293,2.79634e-77
25.383,5.84863e-79
25.473,1.17529e-80
25.563,2.26917e-82
25.653,4.20935e-84
25.743,7.50226e-86
25.833,1.28469e-87
25.923,2.11364e-89
26.013,3.34112e-91
26.103,5.07436e-93
26.193,7.40455e-95
26.283,1.03811e-96
26.373,1.39836e-98
26.463,1.80976e-100
26.553,2.25036e-102
26.643,2.68851e-104
26.733,3.08602e-106
26.823,3.40341e-108
26.913,3.60627e-110
27.003,3.67138e-112
27.093,3.59112e-114
27.183,3.37488e-116
27.273,3.0473e-118
27.363,2.64362e-120
27.453,2.2035e-122
27.543,1.76463e-124
27.633,1.35776e-126
27.723,1.00374e-128
27.813,7.12929e-131
27.903,4.8652e-133
27.993,3.18994e-135
28.083,2.00952e-137
28.173,1.21628e-139
28.263,7.07292e-142
28.353,3.95179e-144
28.443,2.12137e-146
28.533,1.09413e-148
28.623,5.42187e-151
28.713,2.58141e-153
28.803,1.18085e-155
28.893,5.18988e-158
28.983,2.19154e-160
29.073,8.89142e-163
29.163,3.46594e-165
29.253,1.29807e-167
29.343,4.67093e-170
29.433,1.61487e-172
29.523,5.36413e-175
29.613,1.71194e-177
29.703,5.24938e-180
29.793,1.54652e-182
29.883,4.37753e-185
29.973,1.19051e-187
30.063,3.11074e-190
30.153,7.80951e-193
30.243,1.8837e-195
30.333,4.36543e-198
30.423,9.72012e-201
30.513,2.07943e-203
30.603,4.2741e-206
30.693,8.44061e-209
30.783,1.60151e-211
30.873,2.91955e-214
30.963,5.11364e-217
31.053,8.60541e-220
31.143,1.39137e-222
31.233,2.16142e-225
31.323,3.22601e-228
31.413,4.62616e-231
31.503,6.37388e-234
31.593,8.43752e-237
31.683,1.07313e-239
31.773,1.31136e-242
31.863,1.53963e-245
31.953,1.73677e-248
32.043,1.88232e-251
32.133,1.96008e-254
32.223,1.96102e-257
32.313,1.88504e-260
32.403,1.74094e-263
32.493,1.54482e-266
32.583,1.31704e-269
32.673,1.07882e-272
32.763,8.49039e-276
32.853,6.41998e-279
32.943,4.6641e-282
33.033,3.2556e-285
33.123,2.18334e-288
33.213,1.40683e-291
33.303,8.7094e-295
33.393,5.1804e-298
33.483,2.96052e-301
33.573,1.62555e-304
33.663,8.5755e-308
33.753,4.34658e-311
33.843,2.11673e-314
33.933,9.89811e-318
34.023,0.0
34.113,0.0
34.203,0.0
34.293,0.0
34.383,0.0
34.473,0.0
34.563,0.0
34.653,0.0
34.743,0.0
34.833,0.0
34.923,0.0
35.013,0.0
35.103,0.0
35.193,0.0
35.283,0.0
35.373,0.0
35.463,0.0
35.553,0.0
35.643,0.0
35.733,0.0
35.823,0.0
35.913,0.0
36.003,0.0
36.093,0.0
36.183,0.0
36.273,0.0
36.363,0.0
36.453,0.0
36.543,0.0
36.633,0.0
36.723,0.0
36.813,0.0
36.903,0.0
36.993,0.0
37.083,0.0
37.173,0.0
37.263,0.0
37.353,0.0
37.443,0.0
37.533,0.0
37.623,0.0
37.713,0.0
37.803,0.0
37.893,0.0
37.983,0.0
38.073,0.0
38.163,0.0
38.253,0.0
38.343,0.0
38.433,0.0
38.523,0.0
38.613,0.0
38.703,0.0
38.793,0.0
38.883,0.0
38.973,0.0
39.063,0.0
39.153,0.0
39.243,0.0
39.293,0.0