File: sun_1994/xrd_sic_no_anneal/curve_2_fit.dat
14.943,0.0
15.033,0.0
15.123,0.0
15.213,0.0
15.303,0.0
15.393,0.0
15.483,0.0
15.573,0.0
15.663,0.0
15.753,0.0
15.843,0.0
15.933,0.0
16.023,0.0
16.113,0.0
16.203,0.0
16.293,0.0
16.383,0.0
16.473,0.0
16.563,0.0
16.653,0.0
16.743,0.0
16.833,0.0
16.923,0.0
17.013,0.0
17.103,0.0
17.193,0.0
17.283,0.0
17.373,0.0
17.463,0.0
17.553,0.0
17.643,0.0
17.733,0.0
17.823,0.0
17.913,0.0
18.003,0.0
18.093,0.0
18.183,0.0
18.273,0.0
18.363,0.0
18.453,0.0
18.543,0.0
18.633,0.0
18.723,0.0
18.813,0.0
18.903,0.0
18.993,0.0
19.083,0.0
19.173,0.0
19.263,0.0
19.353,0.0
19.443,0.0
19.533,0.0
19.623,0.0
19.713,0.0
19.803,0.0
19.893,0.0
19.983,0.0
20.073,0.0
20.163,0.0
20.253,0.0
20.343,0.0
20.433,0.0
20.523,0.0
20.613,0.0
20.703,0.0
20.793,0.0
20.883,0.0
20.973,0.0
21.063,0.0
21.153,0.0
21.243,0.0
21.333,0.0
21.423,0.0
21.513,0.0
21.603,0.0
21.693,0.0
21.783,0.0
21.873,0.0
21.963,0.0
22.053,0.0
22.143,0.0
22.233,0.0
22.323,0.0
22.413,0.0
22.503,0.0
22.593,0.0
22.683,0.0
22.773,0.0
22.863,0.0
22.953,0.0
23.043,0.0
23.133,0.0
23.223,0.0
23.313,0.0
23.403,0.0
23.493,0.0
23.583,0.0
23.673,0.0
23.763,0.0
23.853,0.0
23.943,0.0
24.033,0.0
24.123,0.0
24.213,0.0
24.303,0.0
24.393,0.0
24.483,0.0
24.573,0.0
24.663,0.0
24.753,0.0
24.843,0.0
24.933,0.0
25.023,0.0
25.113,0.0
25.203,0.0
25.293,0.0
25.383,0.0
25.473,0.0
25.563,0.0
25.653,0.0
25.743,0.0
25.833,0.0
25.923,0.0
26.013,4.70847e-316
26.103,2.87516e-310
26.193,1.55364e-304
26.283,7.42922e-299
26.373,3.1437e-293
26.463,1.17719e-287
26.553,3.9008e-282
26.643,1.14385e-276
26.733,2.96816e-271
26.823,6.81571e-266
26.913,1.38497e-260
27.003,2.49043e-255
27.093,3.96291e-250
27.183,5.58032e-245
27.273,6.95359e-240
27.363,7.66769e-235
27.453,7.48212e-230
27.543,6.46086e-225
27.633,4.93698e-220
27.723,3.33839e-215
27.813,1.99764e-210
27.903,1.0578e-205
27.993,4.95673e-201
28.083,2.05538e-196
28.173,7.54213e-192
28.263,2.44907e-187
28.353,7.03741e-183
28.443,1.78949e-178
28.533,4.02673e-174
28.623,8.01825e-170
28.713,1.4129e-165
28.803,2.20318e-161
28.893,3.04014e-157
28.983,3.71229e-153
29.073,4.01139e-149
29.163,3.83578e-145
29.253,3.24577e-141
29.343,2.43045e-137
29.433,1.6105e-133
29.523,9.44364e-130
29.613,4.90032e-126
29.703,2.25016e-122
29.793,9.14341e-119
29.883,3.28782e-115
29.973,1.0462e-111
30.063,2.94594e-108
30.153,7.34073e-105
30.243,1.61867e-101
30.333,3.15853e-98
30.423,5.45401e-95
30.513,8.33398e-92
30.603,1.12692e-88
30.693,1.34847e-85
30.783,1.42788e-82
30.873,1.33798e-79
30.963,1.10946e-76
31.053,8.141e-74
31.143,5.28628e-71
31.233,3.03758e-68
31.323,1.54458e-65
31.413,6.95021e-63
31.503,2.76752e-60
31.593,9.75189e-58
31.683,3.04083e-55
31.773,8.39074e-53
31.863,2.04887e-50
31.953,4.42724e-48
32.043,8.46558e-46
32.133,1.43247e-43
32.223,2.14497e-41
32.313,2.84223e-39
32.403,3.33276e-37
32.493,3.45823e-35
32.583,3.17548e-33
32.673,2.58029e-31
32.763,1.85539e-29
32.853,1.18061e-27
32.943,6.64784e-26
33.033,3.31254e-24
33.123,1.46065e-22
33.213,5.69953e-21
33.303,1.96805e-19
33.393,6.01363e-18
33.483,1.62608e-16
33.573,3.89094e-15
33.663,8.23895e-14
33.753,1.54381e-12
33.843,2.55989e-11
33.933,3.75625e-10
34.023,4.87744e-09
34.113,5.60447e-08
34.203,5.69879e-07
34.293,5.12786e-06
34.383,4.08314e-05
34.473,0.000287712
34.563,0.00179402
34.653,0.0098992
34.743,0.0483369
34.833,0.208864
34.923,0.798643
35.013,2.70239
35.103,8.09183
35.193,21.4413
35.283,50.2761
35.373,104.322
35.463,191.557
35.553,311.26
35.643,447.563
35.733,569.495
35.823,641.255
35.913,638.965
36.003,563.415
36.093,439.627
36.183,303.561
36.273,185.487
36.363,100.296
36.453,47.9913
36.543,20.321
36.633,7.61435
36.723,2.52479
36.813,0.740838
36.903,0.192365
36.993,0.0442013
37.083,0.00898769
37.173,0.00161721
37.263,0.000257508
37.353,3.62843e-05
37.443,4.52432e-06
37.533,4.99221e-07
37.623,4.87458e-08
37.713,4.21198e-09
37.803,3.22063e-10
37.893,2.17922e-11
37.983,1.30487e-12
38.073,6.91412e-14
38.163,3.24199e-15
38.253,1.34522e-16
38.343,4.93945e-18
38.433,1.60498e-19
38.523,4.61494e-21
38.613,1.17427e-22
38.703,2.64407e-24
38.793,5.26848e-26
38.883,9.2897e-28
38.973,1.44952e-29
39.063,2.00148e-31
39.153,2.44559e-33
39.243,2.64436e-35
39.293,2.02825e-36