File: sun_1994/xrd_sic_no_anneal/xrd.csv
14.9326, 5.3735
14.943, 6.04189
14.9763, 8.21667
14.9799, 6.99344
15.1638, 7.91299
15.2413, 6.87578
15.3138, 5.83109
15.3263, 5.00244
15.3388, 4.49138
15.4513, 7.02568
15.4583, 8.89248
15.5799, 9.77303
15.6821, 10.2438
15.7721, 11.5963
15.827, 13.9009
15.8292, 18.8843
15.8403, 15.5335
15.8417, 21.0531
15.8535, 25.3021
15.8605, 30.3901
15.8667, 47.5456
15.8778, 45.3265
15.9028, 38.15
15.9035, 83.4156
15.916, 122.232
15.916, 107.465
15.916, 66.8249
15.9206, 58.1018
15.9316, 167.469
15.9403, 138.785
15.9403, 73.4576
15.9478, 93.2981
15.966, 224.509
15.9713, 267.097
15.9743, 402.415
15.9749, 486.724
15.9778, 306.693
15.9828, 337.193
15.9944, 196.967
16.0035, 547.427
16.016, 765.809
16.016, 674.161
16.016, 600.196
16.041, 868.616
16.1113, 1250.66
16.1192, 1009.11
16.143, 1525.52
16.1763, 1805.79
16.2191, 2061.49
16.2463, 2480.6
16.2888, 2874.71
16.2971, 4028.38
16.3191, 3371.35
16.4213, 5318.83
16.6934, 6322.13
16.9123, 5429.91
16.9991, 4595.19
17.0525, 3891.05
17.0991, 3356.63
17.1616, 2920.88
17.2255, 2607.28
17.3158, 2144.45
17.3743, 1807.34
17.3846, 1522.82
17.4235, 3953.76
17.4238, 3197.8
17.4388, 2648.61
17.4388, 5381.65
17.4513, 4649.87
17.4563, 1319.64
17.4763, 2276.76
17.4888, 1978.33
17.4888, 1152.55
17.5186, 1013.89
17.5505, 653.469
17.5561, 832.429
17.5891, 475.616
17.5922, 552.739
17.5998, 398.816
17.6048, 272.241
17.6063, 115.46
17.6068, 238.023
17.6123, 312.976
17.6177, 162.51
17.6205, 136
17.6241, 351.088
17.638, 195.606
17.638, 97.7621
17.6589, 79.215
17.663, 58.5443
17.663, 49.2751
17.663, 43.2109
17.6755, 69.5908
17.6797, 30.5077
17.6905, 36.1174
17.7255, 23.3252
17.7325, 17.8854
17.7373, 26.5986
17.738, 20.5929
17.7705, 14.6571
17.7791, 12.3301
17.8876, 10.415
17.8971, 7.13277
17.9004, 8.97859
17.9098, 8.10354
18.0262, 6.14124
18.0558, 5.3712
18.2412, 4.69055
18.2512, 7.97339
18.262, 6.4402
18.2977, 4.17242
18.4012, 5.45348
18.5179, 4.47839
18.5637, 5.16142
18.6731, 3.76478
18.9858, 3.82466
18.9873, 4.51716
19.0512, 3.46059
19.1262, 5.56448
19.1512, 4.99471
19.2137, 4.58339
33.7085, 1.89005
33.7358, 1.58896
33.7358, 1.38223
33.7383, 2.30237
33.7808, 1.1644
34.0933, 1.19239
34.305, 1.61195
34.3102, 1.35664
34.3425, 1.80072
34.3472, 1.92507
34.3883, 2.32985
34.4133, 1.25549
34.5425, 3.90742
34.5431, 3.2038
34.5716, 2.73416
34.6508, 2.10259
34.6883, 2.35863
35.029, 2.93228
35.1116, 3.49934
35.1157, 4.51596
35.1165, 5.98708
35.1597, 5.14649
35.1618, 9.55943
35.1653, 7.08776
35.17, 8.15063
35.2014, 11.5499
35.2188, 15.3793
35.2493, 22.737
35.2611, 18.5718
35.2665, 29.0446
35.2861, 34.5715
35.2959, 84.145
35.3034, 41.9028
35.3062, 50.5902
35.3336, 59.0716
35.3354, 67.2132
35.3361, 72.2616
35.3435, 105.181
35.3721, 144.41
35.3839, 130.108
35.415, 159.489
35.4479, 189.609
35.4697, 222.037
35.5122, 280.932
35.5354, 324.256
35.5914, 397.515
35.7006, 585.207
35.7164, 621.523
35.8015, 673.878
35.9405, 659.227
35.9787, 607.165
36.0342, 462.358
36.1029, 389.379
36.2065, 330.686
36.23, 270.512
36.2772, 224.3
36.3467, 168.131
36.3529, 192.009
36.3779, 152.728
36.4372, 131.489
36.4479, 111.913
36.4662, 101.416
36.5322, 85.5619
36.5329, 57.1479
36.5404, 74.4095
36.5404, 65.5467
36.5829, 47.6897
36.5836, 34.3552
36.5837, 41.1702
36.6412, 30.2146
36.6662, 27.0258
36.7037, 19.0992
36.7101, 22.3179
36.7426, 12.3441
36.7547, 16.0321
36.8073, 10.1034
36.8109, 8.39995
36.8537, 7.21756
37.1382, 6.45125
37.2132, 7.18115
37.3007, 8.21837
37.3043, 478.382
37.3132, 1734.02
37.3132, 1501.29
37.3132, 1327.48
37.3132, 1165.99
37.3132, 1026.45
37.3132, 903.607
37.3174, 405.809
37.3195, 322.175
37.3207, 371.485
37.3293, 690.772
37.3324, 162.716
37.3361, 129.87
37.3382, 796.554
37.3382, 222.574
37.3436, 87.3421
37.3439, 267.442
37.3445, 16.3137
37.3507, 60.9087
37.3507, 196.339
37.3507, 611.84
37.3507, 545.054
37.3582, 42.8411
37.3582, 107.715
37.3632, 50.0503
37.3632, 35.2432
37.3632, 10.3566
37.3686, 11.957
37.3689, 25.4475
37.3716, 72.0835
37.3757, 29.9098
37.3757, 9.29321
37.3813, 13.502
37.3894, 21.1188
37.3907, 18.0983
37.5049, 5.88136
37.507, 7.99363
37.5132, 6.91574
37.5257, 9.68988
37.5315, 4.83153
37.5565, 4.18002
37.6202, 3.66701
37.7282, 3.25439
37.743, 2.81815
37.7686, 2.46202
37.8507, 2.11073
37.8757, 1.73065
37.9257, 1.01324
37.9357, 1.41701
37.9535, 1.19785
38.1007, 1.53239
38.1945, 1.80246
38.4715, 1.94628
38.6507, 2.30349
38.7407, 1.65802
38.8257, 1.2016
38.8382, 1.38946
38.8507, 2.05145
38.9507, 2.30683
39.0182, 1.72332
39.1661, 1.24468
39.1807, 1.51913
39.2757, 1.12461
39.3007, 1.78466