File: mohanta_2013/200nm/raman/curve_1_fit.dat
507.428,0.0351726
507.828,0.0360471
508.228,0.0369338
508.628,0.0378327
509.028,0.0387435
509.428,0.0396661
509.828,0.0406003
510.228,0.0415458
510.628,0.0425025
511.028,0.0434701
511.428,0.0444483
511.828,0.0454369
512.228,0.0464356
512.628,0.0474441
513.028,0.0484621
513.428,0.0494893
513.828,0.0505253
514.228,0.0515698
514.628,0.0526224
515.028,0.0536827
515.428,0.0547504
515.828,0.0558251
516.228,0.0569063
516.628,0.0579935
517.028,0.0590864
517.428,0.0601845
517.828,0.0612873
518.228,0.0623944
518.628,0.0635051
519.028,0.0646191
519.428,0.0657358
519.828,0.0668547
520.228,0.0679753
520.628,0.0690969
521.028,0.0702191
521.428,0.0713412
521.828,0.0724627
522.228,0.073583
522.628,0.0747015
523.028,0.0758175
523.428,0.0769306
523.828,0.07804
524.228,0.0791451
524.628,0.0802454
525.028,0.0813401
525.428,0.0824286
525.828,0.0835104
526.228,0.0845846
526.628,0.0856508
527.028,0.0867082
527.428,0.0877562
527.828,0.0887941
528.228,0.0898213
528.628,0.0908371
529.028,0.0918409
529.428,0.092832
529.828,0.0938098
530.228,0.0947737
530.628,0.0957229
531.028,0.0966569
531.428,0.097575
531.828,0.0984766
532.228,0.0993611
532.628,0.100228
533.028,0.101076
533.428,0.101906
533.828,0.102716
534.228,0.103506
534.628,0.104275
535.028,0.105024
535.428,0.10575
535.828,0.106455
536.228,0.107136
536.628,0.107794
537.028,0.108429
537.428,0.109039
537.828,0.109625
538.228,0.110186
538.628,0.110721
539.028,0.111231
539.428,0.111714
539.828,0.11217
540.228,0.1126
540.628,0.113002
541.028,0.113377
541.428,0.113723
541.828,0.114042
542.228,0.114332
542.628,0.114594
543.028,0.114827
543.428,0.115031
543.828,0.115205
544.228,0.115351
544.628,0.115467
545.028,0.115554
545.428,0.115611
545.828,0.115638
546.228,0.115626
546.628,0.115529
547.028,0.115342
547.428,0.115065
547.828,0.1147
548.228,0.114245
548.628,0.113704
549.028,0.113077
549.428,0.112365
549.828,0.11157
550.228,0.110695
550.628,0.10974
551.028,0.108708
551.428,0.107602
551.828,0.106424
552.228,0.105176
552.628,0.103862
553.028,0.102484
553.428,0.101045
553.828,0.0995488
554.228,0.0979977
554.628,0.0963953
555.028,0.0947449
555.428,0.09305
555.828,0.0913139
556.228,0.0895401
556.628,0.0877321
557.028,0.0858934
557.428,0.0840275
557.828,0.0821378
558.228,0.0802278
558.628,0.0783009
559.028,0.0763605
559.428,0.07441
559.828,0.0724525
560.228,0.0704914
560.628,0.0685298
561.028,0.0665706
561.428,0.0646168
561.828,0.0626714
562.228,0.0607369
562.628,0.0588162
563.028,0.0569116
563.428,0.0550256
563.828,0.0531606
564.228,0.0513185
564.628,0.0495016
565.028,0.0477116
565.428,0.0459504
565.828,0.0442196
566.228,0.0425207
566.628,0.0408551
567.028,0.039224
567.428,0.0376286
567.828,0.0360699
568.228,0.0345487
568.628,0.0330657
569.028,0.0316217
569.428,0.0302171
569.828,0.0288522
570.228,0.0275275
570.628,0.0262431
571.028,0.024999
571.428,0.0237953
571.828,0.0226318
572.228,0.0215084
572.628,0.0204247
573.028,0.0193805
573.428,0.0183753
573.828,0.0174086
574.228,0.0164799
574.628,0.0155885
575.028,0.0147337
575.428,0.013915
575.828,0.0131315
576.228,0.0123824
576.628,0.0116669
577.028,0.0109841
577.428,0.0103332
577.828,0.00971331
578.228,0.00912344
578.628,0.00856269
579.028,0.00803012
579.428,0.00752479
579.828,0.00704574
580.228,0.00659202
580.628,0.0061627
581.028,0.00575684
581.428,0.0053735
581.828,0.00501176
582.228,0.00467072
582.628,0.00434948
583.028,0.00404716
583.428,0.00376292
583.828,0.0034959
584.228,0.00324529
584.628,0.00301029
585.028,0.00279012
585.428,0.00258403
585.828,0.00239129
586.228,0.0022112
586.628,0.00204307
587.028,0.00188625
587.428,0.0017401
587.828,0.00160402
588.228,0.00147743
588.628,0.00135976
589.028,0.00125049
589.428,0.0011491
589.828,0.0010551
590.228,0.000968035
590.628,0.000887459
591.028,0.000812954
591.428,0.000744121
591.828,0.000680584
592.228,0.000621985
592.628,0.000567987
593.028,0.000518271
593.428,0.000472537
593.828,0.000430501
594.228,0.000391899
594.628,0.000356478
595.028,0.000324006
595.428,0.000294261
595.828,0.000267037
596.228,0.000242143
596.628,0.000219398
597.028,0.000198634
597.428,0.000179694
597.828,0.000162433
598.228,0.000146715
598.628,0.000132415
599.028,0.000119415
599.428,0.000107607
599.828,9.68906e-05
600.228,8.71734e-05
600.628,7.83693e-05
601.028,7.03993e-05
601.428,6.31904e-05
601.828,5.66753e-05
602.228,5.07922e-05
602.628,4.54842e-05
603.028,4.0699e-05
603.428,3.63887e-05
603.828,3.25095e-05
604.228,2.90212e-05
604.628,2.58868e-05
605.028,2.3073e-05
605.428,2.05489e-05
605.828,1.82866e-05
606.228,1.62606e-05
606.628,1.44478e-05
607.028,1.28271e-05
607.428,1.13792e-05
607.828,1.00869e-05
608.228,8.93439e-06
608.628,7.90735e-06
609.028,6.9929e-06
609.428,6.17937e-06
609.828,5.4562e-06
610.228,4.8139e-06
610.628,4.24389e-06
611.028,3.73845e-06
611.428,3.29063e-06
611.828,2.89419e-06
612.228,2.54352e-06
612.628,2.23359e-06