File: mohanta_2013/200nm/raman/curve_total_fit.dat
507.428,0.0107247
507.828,0.0117428
508.228,0.0127759
508.628,0.0138241
509.028,0.0148871
509.428,0.0159649
509.828,0.0170573
510.228,0.0181643
510.628,0.0192856
511.028,0.0204212
511.428,0.0215708
511.828,0.0227343
512.228,0.0239116
512.628,0.0251023
513.028,0.0263064
513.428,0.0275235
513.828,0.0287535
514.228,0.0299961
514.628,0.0312511
515.028,0.0325182
515.428,0.0337971
515.828,0.0350876
516.228,0.0363894
516.628,0.0377022
517.028,0.0390257
517.428,0.0403596
517.828,0.0417035
518.228,0.0430572
518.628,0.0444203
519.028,0.0457925
519.428,0.0471734
519.828,0.0485628
520.228,0.0499601
520.628,0.0513652
521.028,0.0527777
521.428,0.0541971
521.828,0.0556232
522.228,0.0570556
522.628,0.0584939
523.028,0.0599378
523.428,0.0613869
523.828,0.0628409
524.228,0.0642995
524.628,0.0657624
525.028,0.0672291
525.428,0.0686994
525.828,0.070173
526.228,0.0716496
526.628,0.0731289
527.028,0.0746106
527.428,0.0760945
527.828,0.0775803
528.228,0.0790679
528.628,0.080557
529.028,0.0820475
529.428,0.0835391
529.828,0.0850319
530.228,0.0865256
530.628,0.0880202
531.028,0.0895157
531.428,0.091012
531.828,0.0925092
532.228,0.0940074
532.628,0.0955066
533.028,0.0970071
533.428,0.0985089
533.828,0.100012
534.228,0.101518
534.628,0.103026
535.028,0.104536
535.428,0.10605
535.828,0.107567
536.228,0.109089
536.628,0.110616
537.028,0.112148
537.428,0.113687
537.828,0.115234
538.228,0.116789
538.628,0.118353
539.028,0.119928
539.428,0.121516
539.828,0.123117
540.228,0.124733
540.628,0.126365
541.028,0.128017
541.428,0.129688
541.828,0.131382
542.228,0.133101
542.628,0.134846
543.028,0.136621
543.428,0.138429
543.828,0.140272
544.228,0.142153
544.628,0.144076
545.028,0.146044
545.428,0.148061
545.828,0.150131
546.228,0.152249
546.628,0.154373
547.028,0.156504
547.428,0.158646
547.828,0.160806
548.228,0.16299
548.628,0.165206
549.028,0.167461
549.428,0.169763
549.828,0.172122
550.228,0.174545
550.628,0.177044
551.028,0.179629
551.428,0.18231
551.828,0.1851
552.228,0.18801
552.628,0.191053
553.028,0.194242
553.428,0.19759
553.828,0.201112
554.228,0.204823
554.628,0.208735
555.028,0.212865
555.428,0.217226
555.828,0.221834
556.228,0.226703
556.628,0.231845
557.028,0.237274
557.428,0.243
557.828,0.249035
558.228,0.255385
558.628,0.262055
559.028,0.269047
559.428,0.276359
559.828,0.283983
560.228,0.291908
560.628,0.300113
561.028,0.308573
561.428,0.317252
561.828,0.326107
562.228,0.335084
562.628,0.344118
563.028,0.353134
563.428,0.362046
563.828,0.370756
564.228,0.379158
564.628,0.387138
565.028,0.394575
565.428,0.401345
565.828,0.407326
566.228,0.412398
566.628,0.416451
567.028,0.419387
567.428,0.421124
567.828,0.421603
568.228,0.420785
568.628,0.418627
569.028,0.415112
569.428,0.410281
569.828,0.4042
570.228,0.396959
570.628,0.388664
571.028,0.379437
571.428,0.369408
571.828,0.358709
572.228,0.347475
572.628,0.335836
573.028,0.323915
573.428,0.311825
573.828,0.299669
574.228,0.287539
574.628,0.275514
575.028,0.263662
575.428,0.252039
575.828,0.240692
576.228,0.229655
576.628,0.218957
577.028,0.208618
577.428,0.19865
577.828,0.189062
578.228,0.179857
578.628,0.171033
579.028,0.162586
579.428,0.15451
579.828,0.146796
580.228,0.139433
580.628,0.132411
581.028,0.125716
581.428,0.119337
581.828,0.11326
582.228,0.107473
582.628,0.101962
583.028,0.0967146
583.428,0.091718
583.828,0.0869603
584.228,0.0824294
584.628,0.078114
585.028,0.0740031
585.428,0.0700862
585.828,0.0663532
586.228,0.0627946
586.628,0.0594012
587.028,0.0561644
587.428,0.053076
587.828,0.0501281
588.228,0.0473133
588.628,0.0446246
589.028,0.0420555
589.428,0.0395996
589.828,0.0372511
590.228,0.0350044
590.628,0.0328541
591.028,0.0307954
591.428,0.0288234
591.828,0.0269339
592.228,0.0251224
592.628,0.0233852
593.028,0.0217185
593.428,0.0201187
593.828,0.0185826
594.228,0.0171069
594.628,0.0156887
595.028,0.0143253
595.428,0.0130139
595.828,0.0117521
596.228,0.0105375
596.628,0.00936792
597.028,0.00824115
597.428,0.00715525
597.828,0.00610833
598.228,0.0050986
598.628,0.00412437
599.028,0.00318404
599.428,0.00227609
599.828,0.00139909
600.228,0.000551686
600.628,-0.000267421
601.028,-0.00105945
601.428,-0.00182556
601.828,-0.00256685
602.228,-0.00328436
602.628,-0.00397908
603.028,-0.00465196
603.428,-0.00530389
603.828,-0.00593572
604.228,-0.00654826
604.628,-0.00714227
605.028,-0.00771849
605.428,-0.00827761
605.828,-0.00882029
606.228,-0.00934718
606.628,-0.00985886
607.028,-0.0103559
607.428,-0.0108389
607.828,-0.0113083
608.228,-0.0117647
608.628,-0.0122084
609.028,-0.0126401
609.428,-0.01306
609.828,-0.0134687
610.228,-0.0138665
610.628,-0.0142537
611.028,-0.0146309
611.428,-0.0149982
611.828,-0.0153561
612.228,-0.0157048
612.628,-0.0160447