File: mohanta_2013/200nm/raman/curve_2_fit.dat
507.428,0.0111065
507.828,0.0112501
508.228,0.0113965
508.628,0.0115458
509.028,0.011698
509.428,0.0118532
509.828,0.0120114
510.228,0.0121728
510.628,0.0123375
511.028,0.0125055
511.428,0.0126769
511.828,0.0128519
512.228,0.0130304
512.628,0.0132126
513.028,0.0133987
513.428,0.0135886
513.828,0.0137826
514.228,0.0139807
514.628,0.0141831
515.028,0.0143898
515.428,0.0146011
515.828,0.014817
516.228,0.0150376
516.628,0.0152631
517.028,0.0154937
517.428,0.0157295
517.828,0.0159706
518.228,0.0162173
518.628,0.0164696
519.028,0.0167278
519.428,0.016992
519.828,0.0172624
520.228,0.0175393
520.628,0.0178227
521.028,0.018113
521.428,0.0184103
521.828,0.0187149
522.228,0.019027
522.628,0.0193468
523.028,0.0196746
523.428,0.0200107
523.828,0.0203554
524.228,0.0207088
524.628,0.0210714
525.028,0.0214434
525.428,0.0218252
525.828,0.0222171
526.228,0.0226194
526.628,0.0230325
527.028,0.0234568
527.428,0.0238927
527.828,0.0243407
528.228,0.024801
528.628,0.0252743
529.028,0.025761
529.428,0.0262615
529.828,0.0267764
530.228,0.0273063
530.628,0.0278517
531.028,0.0284132
531.428,0.0289914
531.828,0.029587
532.228,0.0302006
532.628,0.0308331
533.028,0.031485
533.428,0.0321573
533.828,0.0328508
534.228,0.0335662
534.628,0.0343046
535.028,0.0350668
535.428,0.035854
535.828,0.0366671
536.228,0.0375072
536.628,0.0383756
537.028,0.0392734
537.428,0.040202
537.828,0.0411627
538.228,0.042157
538.628,0.0431863
539.028,0.0442523
539.428,0.0453566
539.828,0.0465011
540.228,0.0476875
540.628,0.0489179
541.028,0.0501944
541.428,0.0515191
541.828,0.0528944
542.228,0.0543227
542.628,0.0558067
543.028,0.0573491
543.428,0.0589527
543.828,0.0606208
544.228,0.0623564
544.628,0.0641632
545.028,0.0660446
545.428,0.0680047
545.828,0.0700473
546.228,0.072177
546.628,0.0743982
547.028,0.0767157
547.428,0.0791348
547.828,0.0816607
548.228,0.0842993
548.628,0.0870565
549.028,0.0899388
549.428,0.0929529
549.828,0.0961059
550.228,0.0994053
550.628,0.102859
551.028,0.106475
551.428,0.110263
551.828,0.11423
552.228,0.118388
552.628,0.122745
553.028,0.127312
553.428,0.132099
553.828,0.137118
554.228,0.142379
554.628,0.147894
555.028,0.153674
555.428,0.159731
555.828,0.166075
556.228,0.172717
556.628,0.179667
557.028,0.186935
557.428,0.194527
557.828,0.202452
558.228,0.210711
558.628,0.219309
559.028,0.228241
559.428,0.237503
559.828,0.247085
560.228,0.256971
560.628,0.267138
561.028,0.277557
561.428,0.28819
561.828,0.29899
562.228,0.309902
562.628,0.320856
563.028,0.331777
563.428,0.342574
563.828,0.35315
564.228,0.363394
564.628,0.373191
565.028,0.382417
565.428,0.390949
565.828,0.398661
566.228,0.405432
566.628,0.41115
567.028,0.415717
567.428,0.41905
567.828,0.421087
568.228,0.42179
568.628,0.421116
569.028,0.419045
569.428,0.415618
569.828,0.410902
570.228,0.404986
570.628,0.397975
571.028,0.389993
571.428,0.381167
571.828,0.371632
572.228,0.361521
572.628,0.350966
573.028,0.340089
573.428,0.329004
573.828,0.317815
574.228,0.306613
574.628,0.29548
575.028,0.284483
575.428,0.273679
575.828,0.263115
576.228,0.252827
576.628,0.242845
577.028,0.233188
577.428,0.223872
577.828,0.214904
578.228,0.206288
578.628,0.198025
579.028,0.190111
579.428,0.18254
579.828,0.175305
580.228,0.168396
580.628,0.161802
581.028,0.155514
581.428,0.149518
581.828,0.143803
582.228,0.138357
582.628,0.133167
583.028,0.128222
583.428,0.12351
583.828,0.119019
584.228,0.114738
584.628,0.110658
585.028,0.106767
585.428,0.103057
585.828,0.0995163
586.228,0.0961378
586.628,0.0929126
587.028,0.0898326
587.428,0.0868903
587.828,0.0840784
588.228,0.0813902
588.628,0.0788193
589.028,0.0763594
589.428,0.074005
589.828,0.0717504
590.228,0.0695908
590.628,0.0675211
591.028,0.0655368
591.428,0.0636337
591.828,0.0618077
592.228,0.0600549
592.628,0.0583716
593.028,0.0567546
593.428,0.0552006
593.828,0.0537065
594.228,0.0522694
594.628,0.0508867
595.028,0.0495557
595.428,0.0482741
595.828,0.0470395
596.228,0.0458498
596.628,0.0447029
597.028,0.0435969
597.428,0.04253
597.828,0.0415003
598.228,0.0405063
598.628,0.0395464
599.028,0.038619
599.428,0.0377229
599.828,0.0368566
600.228,0.0360189
600.628,0.0352086
601.028,0.0344246
601.428,0.0336657
601.828,0.0329309
602.228,0.0322193
602.628,0.0315298
603.028,0.0308617
603.428,0.0302141
603.828,0.0295862
604.228,0.0289771
604.628,0.0283863
605.028,0.0278128
605.428,0.0272563
605.828,0.0267158
606.228,0.026191
606.628,0.0256811
607.028,0.0251857
607.428,0.0247041
607.828,0.024236
608.228,0.0237808
608.628,0.0233381
609.028,0.0229073
609.428,0.0224882
609.828,0.0220803
610.228,0.0216831
610.628,0.0212964
611.028,0.0209198
611.428,0.0205529
611.828,0.0201954
612.228,0.019847
612.628,0.0195074