File: mohanta_2013/200nm/raman/raman_peaks.csv
504.919, 0.0297999
507.428, 0.0258256
509.721, 0.0319982
512.435, 0.0337819
514.938, 0.0381058
516.603, 0.0470584
519.106, 0.0518433
520.772, 0.0587213
523.277, 0.0602791
524.943, 0.0683097
526.607, 0.077608
528.272, 0.0862148
530.776, 0.0900777
533.448, 0.0909403
534.953, 0.0895239
535.783, 0.097112
537.447, 0.106756
539.111, 0.117783
540.775, 0.127427
543.278, 0.132904
545.78, 0.13815
547.444, 0.148024
547.451, 0.137652
549.108, 0.159051
549.936, 0.169406
550.765, 0.178607
551.594, 0.189192
552.422, 0.198854
554.088, 0.205963
554.917, 0.215395
555.742, 0.231512
555.747, 0.224597
556.572, 0.239446
557.399, 0.252566
558.225, 0.266032
559.051, 0.28019
559.877, 0.29331
560.704, 0.306084
561.115, 0.315756
561.693, 0.327084
562.352, 0.340162
562.765, 0.347529
563.176, 0.35674
563.589, 0.364107
564.001, 0.372856
564.413, 0.380684
565.66, 0.390338
566.698, 0.399304
568.994, 0.400867
569.835, 0.39255
571.096, 0.380536
571.102, 0.372238
571.525, 0.36393
572.376, 0.341783
572.94, 0.329784
573.226, 0.319636
573.652, 0.306488
574.502, 0.285032
574.634, 0.295633
574.717, 0.275347
575.217, 0.256895
575.349, 0.267034
576.196, 0.25042
576.202, 0.242121
576.207, 0.233823
576.63, 0.225977
577.054, 0.217208
577.059, 0.20891
577.483, 0.199681
577.907, 0.190912
578.123, 0.180535
578.755, 0.171531
578.761, 0.163233
579.185, 0.153542
579.609, 0.143852
580.033, 0.134161
580.457, 0.124471
580.881, 0.116163
581.723, 0.106003
582.564, 0.0967639
583.407, 0.0866031
584.249, 0.0759813
585.091, 0.0658205
585.933, 0.0565818
587.611, 0.0451346
589.288, 0.0367993
590.964, 0.0281183
592.642, 0.0173626
595.152, 0.0125816
597.66, 0.00929883
600.165, 0.0101652
602.008, 0.00256375
603.796, -0.00558963
605.194, -0.0143798
607.703, -0.0190456
610.209, -0.0179487
612.715, -0.0186959