File: wang_2023/xrd/curve_total_fit.dat
32.2501,3.74712e-34
32.4001,3.74712e-34
32.5501,3.74712e-34
32.7001,3.74712e-34
32.8501,3.74712e-34
33.0001,3.74712e-34
33.1501,3.74712e-34
33.3001,3.74713e-34
33.4501,1.10586e-31
33.6001,1.06364e-24
33.7501,1.31718e-18
33.9001,2.09304e-13
34.0501,4.26767e-09
34.2001,1.11656e-05
34.3501,0.0037485
34.5001,0.161478
34.6501,0.892581
34.8001,0.633088
34.9501,0.0576184
35.1001,0.000672882
35.2501,1.00832e-06
35.4001,1.93882e-10
35.5501,4.78362e-15
35.7001,1.51446e-20
35.8501,6.15233e-27
36.0001,6.95414e-34
36.1501,3.74712e-34
36.3001,3.74712e-34
36.4501,3.74712e-34
36.6001,3.74712e-34
36.7501,3.74712e-34
36.9001,3.74712e-34
37.0501,3.74712e-34
37.2001,3.74712e-34
37.3501,3.74712e-34
37.5001,3.74712e-34
37.6501,3.74712e-34
37.8001,3.74712e-34
37.9501,3.74712e-34
38.1001,3.74712e-34
38.2501,3.74712e-34
38.4001,3.74712e-34
38.5501,3.74712e-34
38.7001,3.74712e-34
38.8501,3.74712e-34
39.0001,3.74712e-34
39.1501,3.74712e-34
39.3001,3.74712e-34
39.4501,3.74712e-34
39.6001,3.74712e-34
39.7501,3.74712e-34
39.9001,3.74712e-34
40.0501,3.74712e-34
40.2001,3.74712e-34
40.3501,3.74712e-34
40.5001,3.74712e-34
40.6501,3.74712e-34
40.8001,3.74712e-34
40.9501,3.74712e-34
41.1001,3.74712e-34
41.2501,3.74712e-34
41.4001,3.74712e-34
41.5501,3.74712e-34
41.7001,3.74712e-34
41.8501,3.74712e-34
42.0001,3.74712e-34
42.1501,3.74712e-34
42.3001,3.74712e-34
42.4501,3.74712e-34
42.6001,3.74712e-34
42.7501,3.74712e-34
42.9001,3.74712e-34
43.0501,3.74712e-34
43.2001,3.74712e-34
43.3501,3.74712e-34
43.5001,3.74712e-34
43.6501,3.74712e-34
43.8001,3.74712e-34
43.9501,3.74712e-34
44.1001,3.74712e-34
44.2501,3.74712e-34
44.4001,3.74712e-34
44.5501,3.74712e-34
44.7001,3.74712e-34
44.8501,3.74712e-34
45.0001,3.74712e-34
45.1501,3.74712e-34
45.3001,3.74712e-34
45.4501,3.74712e-34
45.6001,3.74712e-34
45.7501,3.74712e-34
45.9001,3.74712e-34
46.0501,3.74712e-34
46.2001,3.74712e-34
46.3501,3.74712e-34
46.5001,3.74712e-34
46.6501,3.74712e-34
46.8001,3.74712e-34
46.9501,3.74712e-34
47.1001,3.74712e-34
47.2501,3.74712e-34
47.4001,3.74712e-34
47.5501,3.74712e-34
47.7001,3.74712e-34
47.8501,3.74712e-34
48.0001,3.74712e-34
48.1501,3.74712e-34
48.3001,3.74712e-34
48.4501,3.74712e-34
48.6001,3.74712e-34
48.7501,3.74712e-34
48.9001,3.74712e-34
49.0501,3.74712e-34
49.2001,3.74712e-34
49.3501,3.74712e-34
49.5001,3.74712e-34
49.6501,3.74712e-34
49.8001,3.74712e-34
49.9501,3.74712e-34
50.1001,3.74712e-34
50.2501,3.74712e-34
50.4001,3.74712e-34
50.5501,3.74712e-34
50.7001,3.74712e-34
50.8501,3.74712e-34
51.0001,3.74712e-34
51.1501,3.74712e-34
51.3001,3.74712e-34
51.4501,3.74712e-34
51.6001,3.74712e-34
51.7501,3.74712e-34
51.9001,3.74712e-34
52.0501,3.74712e-34
52.2001,3.74712e-34
52.3501,3.74712e-34
52.5001,3.74712e-34
52.6501,3.74712e-34
52.8001,3.74712e-34
52.9501,3.74712e-34
53.1001,3.74712e-34
53.2501,3.74712e-34
53.4001,3.74712e-34
53.5501,3.74712e-34
53.7001,3.74712e-34
53.8501,3.74712e-34
54.0001,3.74712e-34
54.1501,3.74712e-34
54.3001,3.74712e-34
54.4501,3.74712e-34
54.6001,3.74712e-34
54.7501,3.74712e-34
54.9001,3.74712e-34
55.0501,3.74712e-34
55.2001,3.74712e-34
55.3501,3.74712e-34
55.5001,3.74712e-34
55.6501,3.74712e-34
55.8001,3.74712e-34
55.9501,3.74712e-34
56.1001,3.74712e-34
56.2501,3.74712e-34
56.4001,3.74712e-34
56.5501,3.74712e-34
56.7001,3.74712e-34
56.8501,3.74712e-34
57.0001,3.74712e-34
57.1501,3.74712e-34
57.3001,3.74712e-34
57.4501,3.74712e-34
57.6001,3.74712e-34
57.7501,3.74712e-34
57.9001,3.74712e-34
58.0501,3.74712e-34
58.2001,3.74712e-34
58.3501,3.74712e-34
58.5001,3.74712e-34
58.6501,3.74712e-34
58.8001,3.74712e-34
58.9501,3.74712e-34
59.1001,3.74712e-34
59.2501,3.74712e-34
59.4001,3.74712e-34
59.5501,3.74712e-34
59.7001,3.74712e-34
59.8501,3.74712e-34
60.0001,3.74712e-34
60.1501,3.74712e-34
60.3001,3.74712e-34
60.4501,3.74712e-34
60.6001,3.74712e-34
60.7501,3.74712e-34
60.9001,3.74712e-34
61.0501,3.74712e-34
61.2001,3.74712e-34
61.3501,3.74712e-34
61.5001,3.74712e-34
61.6501,3.74712e-34
61.8001,3.74712e-34
61.9501,3.74712e-34
62.1001,3.74712e-34
62.2501,3.74712e-34
62.4001,3.74712e-34
62.5501,3.74712e-34
62.7001,3.74712e-34
62.8501,3.74712e-34
63.0001,3.74712e-34
63.1501,3.74712e-34
63.3001,3.74712e-34
63.4501,3.74712e-34
63.6001,3.74712e-34
63.7501,3.74712e-34
63.9001,3.74712e-34
64.0501,3.74712e-34
64.2001,3.74712e-34
64.3501,3.74712e-34
64.5001,3.74712e-34
64.6501,3.74712e-34
64.8001,3.74712e-34
64.9501,3.74712e-34
65.1001,3.74712e-34
65.2501,3.74712e-34
65.4001,3.74712e-34
65.5501,3.74712e-34
65.7001,3.74712e-34
65.8501,3.74712e-34
66.0001,3.74712e-34
66.1501,3.74712e-34
66.3001,3.74712e-34
66.4501,3.74712e-34
66.6001,3.74712e-34
66.7501,3.74712e-34
66.9001,3.74712e-34
67.0501,3.74712e-34
67.2001,3.74712e-34
67.3501,3.74712e-34
67.5001,3.74712e-34
67.6501,3.74712e-34
67.8001,3.74712e-34
67.9501,3.74712e-34
68.1001,3.74712e-34
68.2501,3.74712e-34
68.4001,3.74712e-34
68.5501,3.74712e-34
68.7001,3.74712e-34
68.8501,3.74712e-34
69.0001,3.74712e-34
69.1501,3.74712e-34
69.3001,3.74712e-34
69.4501,3.74712e-34
69.6001,3.74712e-34
69.7501,3.74712e-34
69.9001,3.74712e-34
70.0501,3.74712e-34
70.2001,3.74712e-34
70.3501,3.74712e-34
70.5001,3.74712e-34
70.6501,3.74712e-34
70.8001,3.74712e-34
70.9501,3.74712e-34
71.1001,3.74712e-34
71.2501,3.74712e-34
71.4001,3.74712e-34
71.5501,3.76152e-34
71.7001,3.65034e-29
71.8501,1.2022e-22
72.0001,5.14717e-17
72.1501,2.86484e-12
72.3001,2.07287e-08
72.4501,1.94979e-05
72.6001,0.00238419
72.7501,0.0378999
72.9001,0.0783203
73.0501,0.0210403
73.2001,0.000734804
73.3501,3.33604e-06
73.5001,1.96894e-09
73.6501,1.51069e-13
73.8001,1.50681e-18
73.9501,1.95381e-24
74.1001,3.29718e-31
74.2501,3.74719e-34
74.4001,3.74712e-34
74.5501,3.74712e-34
74.7001,3.74712e-34
74.8501,3.74712e-34
75.0001,3.74712e-34
75.1501,3.74712e-34
75.3001,3.74712e-34
75.4401,3.74712e-34