File: wang_2023/xrd/curve_1_fit.dat
32.2501,1.15817e-119
32.4001,1.52089e-105
32.5501,2.56272e-92
32.7001,5.54099e-80
32.8501,1.53728e-68
33.0001,5.47268e-58
33.1501,2.49993e-48
33.3001,1.46533e-39
33.4501,1.10211e-31
33.6001,1.06364e-24
33.7501,1.31718e-18
33.9001,2.09304e-13
34.0501,4.26767e-09
34.2001,1.11656e-05
34.3501,0.0037485
34.5001,0.161478
34.6501,0.892581
34.8001,0.633088
34.9501,0.0576184
35.1001,0.000672882
35.2501,1.00832e-06
35.4001,1.93882e-10
35.5501,4.78362e-15
35.7001,1.51446e-20
35.8501,6.15233e-27
36.0001,3.20702e-34
36.1501,2.14509e-42
36.3001,1.84107e-51
36.4501,2.02756e-61
36.6001,2.86523e-72
36.7501,5.19549e-84
36.9001,1.20885e-96
37.0501,3.60912e-110
37.2001,1.38264e-124
37.3501,6.79673e-140
37.5001,4.28716e-156
37.6501,3.46993e-173
37.8001,3.60374e-191
37.9501,4.80248e-210
38.1001,8.21219e-230
38.2501,1.80191e-250
38.4001,5.07327e-272
38.5501,1.83284e-294
38.7001,8.49651e-318
38.8501,0.0
39.0001,0.0
39.1501,0.0
39.3001,0.0
39.4501,0.0
39.6001,0.0
39.7501,0.0
39.9001,0.0
40.0501,0.0
40.2001,0.0
40.3501,0.0
40.5001,0.0
40.6501,0.0
40.8001,0.0
40.9501,0.0
41.1001,0.0
41.2501,0.0
41.4001,0.0
41.5501,0.0
41.7001,0.0
41.8501,0.0
42.0001,0.0
42.1501,0.0
42.3001,0.0
42.4501,0.0
42.6001,0.0
42.7501,0.0
42.9001,0.0
43.0501,0.0
43.2001,0.0
43.3501,0.0
43.5001,0.0
43.6501,0.0
43.8001,0.0
43.9501,0.0
44.1001,0.0
44.2501,0.0
44.4001,0.0
44.5501,0.0
44.7001,0.0
44.8501,0.0
45.0001,0.0
45.1501,0.0
45.3001,0.0
45.4501,0.0
45.6001,0.0
45.7501,0.0
45.9001,0.0
46.0501,0.0
46.2001,0.0
46.3501,0.0
46.5001,0.0
46.6501,0.0
46.8001,0.0
46.9501,0.0
47.1001,0.0
47.2501,0.0
47.4001,0.0
47.5501,0.0
47.7001,0.0
47.8501,0.0
48.0001,0.0
48.1501,0.0
48.3001,0.0
48.4501,0.0
48.6001,0.0
48.7501,0.0
48.9001,0.0
49.0501,0.0
49.2001,0.0
49.3501,0.0
49.5001,0.0
49.6501,0.0
49.8001,0.0
49.9501,0.0
50.1001,0.0
50.2501,0.0
50.4001,0.0
50.5501,0.0
50.7001,0.0
50.8501,0.0
51.0001,0.0
51.1501,0.0
51.3001,0.0
51.4501,0.0
51.6001,0.0
51.7501,0.0
51.9001,0.0
52.0501,0.0
52.2001,0.0
52.3501,0.0
52.5001,0.0
52.6501,0.0
52.8001,0.0
52.9501,0.0
53.1001,0.0
53.2501,0.0
53.4001,0.0
53.5501,0.0
53.7001,0.0
53.8501,0.0
54.0001,0.0
54.1501,0.0
54.3001,0.0
54.4501,0.0
54.6001,0.0
54.7501,0.0
54.9001,0.0
55.0501,0.0
55.2001,0.0
55.3501,0.0
55.5001,0.0
55.6501,0.0
55.8001,0.0
55.9501,0.0
56.1001,0.0
56.2501,0.0
56.4001,0.0
56.5501,0.0
56.7001,0.0
56.8501,0.0
57.0001,0.0
57.1501,0.0
57.3001,0.0
57.4501,0.0
57.6001,0.0
57.7501,0.0
57.9001,0.0
58.0501,0.0
58.2001,0.0
58.3501,0.0
58.5001,0.0
58.6501,0.0
58.8001,0.0
58.9501,0.0
59.1001,0.0
59.2501,0.0
59.4001,0.0
59.5501,0.0
59.7001,0.0
59.8501,0.0
60.0001,0.0
60.1501,0.0
60.3001,0.0
60.4501,0.0
60.6001,0.0
60.7501,0.0
60.9001,0.0
61.0501,0.0
61.2001,0.0
61.3501,0.0
61.5001,0.0
61.6501,0.0
61.8001,0.0
61.9501,0.0
62.1001,0.0
62.2501,0.0
62.4001,0.0
62.5501,0.0
62.7001,0.0
62.8501,0.0
63.0001,0.0
63.1501,0.0
63.3001,0.0
63.4501,0.0
63.6001,0.0
63.7501,0.0
63.9001,0.0
64.0501,0.0
64.2001,0.0
64.3501,0.0
64.5001,0.0
64.6501,0.0
64.8001,0.0
64.9501,0.0
65.1001,0.0
65.2501,0.0
65.4001,0.0
65.5501,0.0
65.7001,0.0
65.8501,0.0
66.0001,0.0
66.1501,0.0
66.3001,0.0
66.4501,0.0
66.6001,0.0
66.7501,0.0
66.9001,0.0
67.0501,0.0
67.2001,0.0
67.3501,0.0
67.5001,0.0
67.6501,0.0
67.8001,0.0
67.9501,0.0
68.1001,0.0
68.2501,0.0
68.4001,0.0
68.5501,0.0
68.7001,0.0
68.8501,0.0
69.0001,0.0
69.1501,0.0
69.3001,0.0
69.4501,0.0
69.6001,0.0
69.7501,0.0
69.9001,0.0
70.0501,0.0
70.2001,0.0
70.3501,0.0
70.5001,0.0
70.6501,0.0
70.8001,0.0
70.9501,0.0
71.1001,0.0
71.2501,0.0
71.4001,0.0
71.5501,0.0
71.7001,0.0
71.8501,0.0
72.0001,0.0
72.1501,0.0
72.3001,0.0
72.4501,0.0
72.6001,0.0
72.7501,0.0
72.9001,0.0
73.0501,0.0
73.2001,0.0
73.3501,0.0
73.5001,0.0
73.6501,0.0
73.8001,0.0
73.9501,0.0
74.1001,0.0
74.2501,0.0
74.4001,0.0
74.5501,0.0
74.7001,0.0
74.8501,0.0
75.0001,0.0
75.1501,0.0
75.3001,0.0
75.4401,0.0