File: wang_2023/xrd/curve_2_fit.dat
32.2501,0.0
32.4001,0.0
32.5501,0.0
32.7001,0.0
32.8501,0.0
33.0001,0.0
33.1501,0.0
33.3001,0.0
33.4501,0.0
33.6001,0.0
33.7501,0.0
33.9001,0.0
34.0501,0.0
34.2001,0.0
34.3501,0.0
34.5001,0.0
34.6501,0.0
34.8001,0.0
34.9501,0.0
35.1001,0.0
35.2501,0.0
35.4001,0.0
35.5501,0.0
35.7001,0.0
35.8501,0.0
36.0001,0.0
36.1501,0.0
36.3001,0.0
36.4501,0.0
36.6001,0.0
36.7501,0.0
36.9001,0.0
37.0501,0.0
37.2001,0.0
37.3501,0.0
37.5001,0.0
37.6501,0.0
37.8001,0.0
37.9501,0.0
38.1001,0.0
38.2501,0.0
38.4001,0.0
38.5501,0.0
38.7001,0.0
38.8501,0.0
39.0001,0.0
39.1501,0.0
39.3001,0.0
39.4501,0.0
39.6001,0.0
39.7501,0.0
39.9001,0.0
40.0501,0.0
40.2001,0.0
40.3501,0.0
40.5001,0.0
40.6501,0.0
40.8001,0.0
40.9501,0.0
41.1001,0.0
41.2501,0.0
41.4001,0.0
41.5501,0.0
41.7001,0.0
41.8501,0.0
42.0001,0.0
42.1501,0.0
42.3001,0.0
42.4501,0.0
42.6001,0.0
42.7501,0.0
42.9001,0.0
43.0501,0.0
43.2001,0.0
43.3501,0.0
43.5001,0.0
43.6501,0.0
43.8001,0.0
43.9501,0.0
44.1001,0.0
44.2501,0.0
44.4001,0.0
44.5501,0.0
44.7001,0.0
44.8501,0.0
45.0001,0.0
45.1501,0.0
45.3001,0.0
45.4501,0.0
45.6001,0.0
45.7501,0.0
45.9001,0.0
46.0501,0.0
46.2001,0.0
46.3501,0.0
46.5001,0.0
46.6501,0.0
46.8001,0.0
46.9501,0.0
47.1001,0.0
47.2501,0.0
47.4001,0.0
47.5501,0.0
47.7001,0.0
47.8501,0.0
48.0001,0.0
48.1501,0.0
48.3001,0.0
48.4501,0.0
48.6001,0.0
48.7501,0.0
48.9001,0.0
49.0501,0.0
49.2001,0.0
49.3501,0.0
49.5001,0.0
49.6501,0.0
49.8001,0.0
49.9501,0.0
50.1001,0.0
50.2501,0.0
50.4001,0.0
50.5501,0.0
50.7001,0.0
50.8501,0.0
51.0001,0.0
51.1501,0.0
51.3001,0.0
51.4501,0.0
51.6001,0.0
51.7501,0.0
51.9001,0.0
52.0501,0.0
52.2001,0.0
52.3501,0.0
52.5001,0.0
52.6501,0.0
52.8001,0.0
52.9501,0.0
53.1001,0.0
53.2501,0.0
53.4001,0.0
53.5501,0.0
53.7001,0.0
53.8501,0.0
54.0001,0.0
54.1501,0.0
54.3001,0.0
54.4501,0.0
54.6001,0.0
54.7501,0.0
54.9001,0.0
55.0501,0.0
55.2001,0.0
55.3501,0.0
55.5001,0.0
55.6501,0.0
55.8001,0.0
55.9501,0.0
56.1001,0.0
56.2501,0.0
56.4001,0.0
56.5501,0.0
56.7001,0.0
56.8501,0.0
57.0001,0.0
57.1501,0.0
57.3001,0.0
57.4501,0.0
57.6001,0.0
57.7501,0.0
57.9001,0.0
58.0501,0.0
58.2001,0.0
58.3501,0.0
58.5001,0.0
58.6501,0.0
58.8001,0.0
58.9501,0.0
59.1001,0.0
59.2501,0.0
59.4001,0.0
59.5501,0.0
59.7001,0.0
59.8501,0.0
60.0001,0.0
60.1501,0.0
60.3001,0.0
60.4501,0.0
60.6001,0.0
60.7501,0.0
60.9001,0.0
61.0501,0.0
61.2001,0.0
61.3501,0.0
61.5001,0.0
61.6501,0.0
61.8001,0.0
61.9501,0.0
62.1001,0.0
62.2501,0.0
62.4001,0.0
62.5501,0.0
62.7001,0.0
62.8501,0.0
63.0001,0.0
63.1501,0.0
63.3001,0.0
63.4501,0.0
63.6001,0.0
63.7501,0.0
63.9001,0.0
64.0501,0.0
64.2001,0.0
64.3501,0.0
64.5001,0.0
64.6501,0.0
64.8001,0.0
64.9501,0.0
65.1001,0.0
65.2501,0.0
65.4001,0.0
65.5501,0.0
65.7001,0.0
65.8501,0.0
66.0001,0.0
66.1501,0.0
66.3001,0.0
66.4501,0.0
66.6001,0.0
66.7501,0.0
66.9001,0.0
67.0501,0.0
67.2001,0.0
67.3501,0.0
67.5001,0.0
67.6501,0.0
67.8001,0.0
67.9501,0.0
68.1001,0.0
68.2501,0.0
68.4001,0.0
68.5501,0.0
68.7001,0.0
68.8501,2.376e-321
69.0001,5.35255e-298
69.1501,1.56773e-275
69.3001,5.96928e-254
69.4501,2.95471e-233
69.6001,1.90129e-213
69.7501,1.59046e-194
69.9001,1.72957e-176
70.0501,2.44509e-159
70.2001,4.49358e-143
70.3501,1.07357e-127
70.5001,3.33435e-113
70.6501,1.34627e-99
70.8001,7.06634e-87
70.9501,4.82167e-75
71.1001,4.27702e-64
71.2501,4.93204e-54
71.4001,7.39355e-45
71.5501,1.44086e-36
71.7001,3.6503e-29
71.8501,1.2022e-22
72.0001,5.14717e-17
72.1501,2.86484e-12
72.3001,2.07287e-08
72.4501,1.94979e-05
72.6001,0.00238419
72.7501,0.0378999
72.9001,0.0783203
73.0501,0.0210403
73.2001,0.000734804
73.3501,3.33604e-06
73.5001,1.96894e-09
73.6501,1.51069e-13
73.8001,1.50681e-18
73.9501,1.95381e-24
74.1001,3.29343e-31
74.2501,7.21698e-39
74.4001,2.0559e-47
74.5501,7.61363e-57
74.7001,3.6654e-67
74.8501,2.29399e-78
75.0001,1.8664e-90
75.1501,1.97405e-103
75.3001,2.71426e-117
75.4401,4.97321e-131