File: li_2014/200_xrd/curve_1_fit.dat
30.7028,0.00971265
30.7428,0.0101831
30.7828,0.0106884
30.8228,0.0112322
30.8628,0.0118184
30.9028,0.0124516
30.9428,0.0131368
30.9828,0.01388
31.0228,0.0146878
31.0628,0.0155678
31.1028,0.016529
31.1428,0.0175816
31.1828,0.0187375
31.2228,0.0200104
31.2628,0.0214168
31.3028,0.0229758
31.3428,0.0247101
31.3828,0.0266468
31.4228,0.0288184
31.4628,0.0312641
31.5028,0.0340315
31.5428,0.0371789
31.5828,0.0407784
31.6228,0.0449194
31.6628,0.0497146
31.7028,0.0553067
31.7428,0.0618789
31.7828,0.0696687
31.8228,0.0789881
31.8628,0.0902522
31.9028,0.104021
31.9428,0.121062
31.9828,0.14244
32.0228,0.169659
32.0628,0.204864
32.1028,0.251139
32.1428,0.312905
32.1828,0.396306
32.2228,0.509116
32.2628,0.658541
32.3028,0.842979
32.3428,1.03362
32.3828,1.15995
32.4228,1.14918
32.4628,1.00836
32.5028,0.815218
32.5428,0.634895
32.5828,0.490942
32.6228,0.382823
32.6628,0.302948
32.7028,0.243721
32.7428,0.199257
32.7828,0.165353
32.8228,0.139079
32.8628,0.118398
32.9028,0.101881
32.9428,0.0885097
32.9828,0.0775528
33.0228,0.0684739
33.0628,0.0608746
33.1028,0.0544551
33.1428,0.0489866
33.1828,0.0442925
33.2228,0.0402349
33.2628,0.0367049
33.3028,0.0336156
33.3428,0.0308973
33.3828,0.0284934
33.4228,0.0263574
33.4628,0.0244514
33.5028,0.0227436
33.5428,0.0212076
33.5828,0.0198214
33.6228,0.018566
33.6628,0.0174257
33.7028,0.0163868
33.7428,0.0154377
33.7828,0.0145685
33.8228,0.0137704
33.8628,0.0130358
33.9028,0.0123583
33.9428,0.0117322
33.9828,0.0111523
34.0228,0.0106142
34.0628,0.010114
34.1028,0.00964829
34.1428,0.00921394
34.1828,0.00880819
34.2228,0.00842861
34.2628,0.00807299
34.3028,0.00773937
34.3428,0.00742596
34.3828,0.00713118
34.4228,0.00685357
34.4628,0.00659183
34.5028,0.00634478
34.5428,0.00611134
34.5828,0.00589053
34.6228,0.00568146
34.6628,0.0054833
34.7028,0.00529532
34.7428,0.00511683
34.7828,0.0049472
34.8228,0.00478586
34.8628,0.00463227
34.9028,0.00448595
34.9428,0.00434645
34.9828,0.00421334
35.0228,0.00408626
35.0628,0.00396483
35.1028,0.00384872
35.1428,0.00373764
35.1828,0.0036313
35.2228,0.00352942
35.2628,0.00343177
35.3028,0.00333811
35.3428,0.00324823
35.3828,0.00316193
35.4228,0.00307902
35.4628,0.00299933
35.5028,0.00292269
35.5428,0.00284894
35.5828,0.00277796
35.6228,0.00270959
35.6628,0.00264371
35.7028,0.0025802
35.7428,0.00251895
35.7828,0.00245986
35.8228,0.00240282
35.8628,0.00234774
35.9028,0.00229453
35.9428,0.00224311
35.9828,0.0021934
36.0228,0.00214532
36.0628,0.0020988
36.1028,0.00205378
36.1428,0.00201019
36.1828,0.00196798
36.2228,0.00192707
36.2628,0.00188743
36.3028,0.00184901
36.3428,0.00181174
36.3828,0.00177558
36.4228,0.0017405
36.4628,0.00170645
36.5028,0.00167338
36.5428,0.00164127
36.5828,0.00161007
36.6228,0.00157976
36.6628,0.00155029
36.7028,0.00152164
36.7428,0.00149377
36.7828,0.00146666
36.8228,0.00144029
36.8628,0.00141461
36.9028,0.00138962
36.9428,0.00136529
36.9828,0.00134159
37.0228,0.0013185
37.0628,0.001296
37.1028,0.00127407
37.1428,0.00125269
37.1828,0.00123185
37.2228,0.00121152
37.2628,0.00119169
37.3028,0.00117234
37.3428,0.00115347
37.3828,0.00113504
37.4228,0.00111705
37.4628,0.00109948
37.5028,0.00108233
37.5428,0.00106558
37.5828,0.00104921
37.6228,0.00103321
37.6628,0.00101758
37.7028,0.0010023
37.7428,0.000987359
37.7828,0.000972751
37.8228,0.000958465
37.8628,0.000944492
37.9028,0.000930822
37.9428,0.000917446
37.9828,0.000904357
38.0228,0.000891545
38.0628,0.000879004
38.1028,0.000866726
38.1428,0.000854703
38.1828,0.000842928
38.2228,0.000831395
38.2628,0.000820097
38.3028,0.000809028
38.3428,0.000798181
38.3828,0.000787551
38.4228,0.000777132
38.4628,0.000766918
38.5028,0.000756904
38.5428,0.000747085
38.5828,0.000737456
38.6228,0.000728011
38.6628,0.000718747
38.7028,0.000709659
38.7428,0.000700742
38.7828,0.000691992
38.8228,0.000683405
38.8628,0.000674976
38.9028,0.000666703
38.9428,0.00065858
38.9828,0.000650605
39.0228,0.000642774
39.0628,0.000635084
39.1028,0.000627531
39.1428,0.000620112
39.1828,0.000612823
39.2228,0.000605662
39.2628,0.000598626
39.3028,0.000591712
39.3428,0.000584917
39.3828,0.000578238
39.4228,0.000571673
39.4628,0.00056522
39.5028,0.000558874
39.5428,0.000552635
39.5828,0.0005465
39.6228,0.000540467
39.6628,0.000534533
39.7028,0.000528696
39.7428,0.000522954
39.7828,0.000517305
39.8228,0.000511747
39.8628,0.000506279
39.9028,0.000500897
39.9428,0.000495601
39.9828,0.000490388
40.0228,0.000485257
40.0628,0.000480206
40.1028,0.000475234
40.1428,0.000470338
40.1828,0.000465518
40.2228,0.000460772
40.2628,0.000456097
40.3028,0.000451494
40.3228,0.000449218