File: li_2014/200_xrd/curve_2_fit.dat
30.7028,2.0779e-23
30.7428,4.13382e-23
30.7828,8.18552e-23
30.8228,1.61327e-22
30.8628,3.16472e-22
30.9028,6.17917e-22
30.9428,1.20086e-21
30.9828,2.32285e-21
31.0228,4.47214e-21
31.0628,8.56994e-21
31.1028,1.63458e-20
31.1428,3.10315e-20
31.1828,5.86362e-20
31.2228,1.1028e-19
31.2628,2.06439e-19
31.3028,3.84641e-19
31.3428,7.13322e-19
31.3828,1.31669e-18
31.4228,2.41906e-18
31.4628,4.42362e-18
31.5028,8.05147e-18
31.5428,1.45861e-17
31.5828,2.63009e-17
31.6228,4.72029e-17
31.6628,8.43207e-17
31.7028,1.49922e-16
31.7428,2.65317e-16
31.7828,4.67337e-16
31.8228,8.19338e-16
31.8628,1.42976e-15
31.9028,2.4833e-15
31.9428,4.29301e-15
31.9828,7.38689e-15
32.0228,1.26511e-14
32.0628,2.15656e-14
32.1028,3.659e-14
32.1428,6.17917e-14
32.1828,1.03864e-13
32.2228,1.73766e-13
32.2628,2.89356e-13
32.3028,4.79587e-13
32.3428,7.91169e-13
32.3828,1.29909e-12
32.4228,2.12311e-12
32.4628,3.45363e-12
32.5028,5.59171e-12
32.5428,9.01115e-12
32.5828,1.44538e-11
32.6228,2.30756e-11
32.6628,3.66682e-11
32.7028,5.79953e-11
32.7428,9.12983e-11
32.7828,1.43054e-10
32.8228,2.23102e-10
32.8628,3.46317e-10
32.9028,5.35072e-10
32.9428,8.22842e-10
32.9828,1.25947e-09
33.0228,1.91878e-09
33.0628,2.90958e-09
33.1028,4.3914e-09
33.1428,6.59693e-09
33.1828,9.86387e-09
33.2228,1.46798e-08
33.2628,2.1745e-08
33.3028,3.20601e-08
33.3428,4.70477e-08
33.3828,6.87192e-08
33.4228,9.99044e-08
33.4628,1.44563e-07
33.5028,2.08209e-07
33.5428,2.98474e-07
33.5828,4.25873e-07
33.6228,6.04813e-07
33.6628,8.54927e-07
33.7028,1.20283e-06
33.7428,1.6844e-06
33.7828,2.34776e-06
33.8228,3.25709e-06
33.8628,4.4975e-06
33.9028,6.18131e-06
33.9428,8.45583e-06
33.9828,1.15133e-05
34.0228,1.5603e-05
34.0628,2.10467e-05
34.1028,2.82571e-05
34.1428,3.77605e-05
34.1828,5.02245e-05
34.2228,6.64904e-05
34.2628,8.76132e-05
34.3028,0.000114907
34.3428,0.00015
34.3828,0.000194896
34.4228,0.000252047
34.4628,0.000324434
34.5028,0.00041566
34.5428,0.00053005
34.5828,0.000672763
34.6228,0.000849913
34.6628,0.0010687
34.7028,0.00133752
34.7428,0.00166615
34.7828,0.00206582
34.8228,0.00254941
34.8628,0.0031315
34.9028,0.00382854
34.9428,0.00465887
34.9828,0.0056428
35.0228,0.00680261
35.0628,0.00816251
35.1028,0.00974851
35.1428,0.0115883
35.1828,0.013711
35.2228,0.0161467
35.2628,0.0189263
35.3028,0.0220808
35.3428,0.0256407
35.3828,0.0296355
35.4228,0.0340928
35.4628,0.0390372
35.5028,0.04449
35.5428,0.0504675
35.5828,0.0569809
35.6228,0.0640343
35.6628,0.0716248
35.7028,0.0797409
35.7428,0.088362
35.7828,0.0974578
35.8228,0.106988
35.8628,0.116901
35.9028,0.127137
35.9428,0.137623
35.9828,0.148278
36.0228,0.159011
36.0628,0.169726
36.1028,0.180316
36.1428,0.190672
36.1828,0.200681
36.2228,0.210229
36.2628,0.219203
36.3028,0.227492
36.3428,0.234992
36.3828,0.241606
36.4228,0.247246
36.4628,0.251835
36.5028,0.255312
36.5428,0.257628
36.5828,0.25875
36.6228,0.258616
36.6628,0.257007
36.7028,0.253924
36.7428,0.249421
36.7828,0.243575
36.8228,0.236483
36.8628,0.228265
36.9028,0.219052
36.9428,0.20899
36.9828,0.198232
37.0228,0.186935
37.0628,0.175258
37.1028,0.163356
37.1428,0.151378
37.1828,0.139463
37.2228,0.12774
37.2628,0.116322
37.3028,0.10531
37.3428,0.094786
37.3828,0.0848183
37.4228,0.075458
37.4628,0.0667406
37.5028,0.0586875
37.5428,0.0513062
37.5828,0.0445928
37.6228,0.0385327
37.6628,0.0331027
37.7028,0.0282727
37.7428,0.0240071
37.7828,0.0202667
37.8228,0.0170097
37.8628,0.0141932
37.9028,0.0117742
37.9428,0.00971081
37.9828,0.00796247
38.0228,0.00649098
38.0628,0.00526068
38.1028,0.00423881
38.1428,0.00339559
38.1828,0.00270431
38.2228,0.00214125
38.2628,0.00168558
38.3028,0.00131916
38.3428,0.00102641
38.3828,0.00079398
38.4228,0.000610618
38.4628,0.000466874
38.5028,0.000354894
38.5428,0.000268206
38.5828,0.000201515
38.6228,0.000150528
38.6628,0.000111788
38.7028,8.25359e-05
38.7428,6.05845e-05
38.7828,4.42129e-05
38.8228,3.2078e-05
38.8628,2.31385e-05
38.9028,1.65933e-05
38.9428,1.18304e-05
38.9828,8.38563e-06
39.0228,5.90939e-06
39.0628,4.14018e-06
39.1028,2.8838e-06
39.1428,1.99701e-06
39.1828,1.37489e-06
39.2228,9.41071e-07
39.2628,6.40395e-07
39.3028,4.33255e-07
39.3428,2.91412e-07
39.3828,1.94869e-07
39.4228,1.29553e-07
39.4628,8.56291e-08
39.5028,5.62685e-08
39.5428,3.67603e-08
39.5828,2.38761e-08
39.6228,1.54176e-08
39.6628,9.89782e-09
39.7028,6.31731e-09
39.7428,4.00862e-09
39.7828,2.52888e-09
39.8228,1.5861e-09
39.8628,9.89013e-10
39.9028,6.13118e-10
39.9428,3.77881e-10
39.9828,2.31546e-10
40.0228,1.41055e-10
40.0628,8.54298e-11
40.1028,5.14399e-11
40.1428,3.07936e-11
40.1828,1.8327e-11
40.2228,1.0844e-11
40.2628,6.37912e-12
40.3028,3.73079e-12
40.3228,2.8469e-12