File: li_2014/200_xrd/curve_total_fit.dat
30.7028,1.21058
30.7428,1.21115
30.7828,1.21176
30.8228,1.21242
30.8628,1.21313
30.9028,1.21391
30.9428,1.21474
30.9828,1.21565
31.0228,1.21664
31.0628,1.21772
31.1028,1.21889
31.1428,1.22018
31.1828,1.22159
31.2228,1.22313
31.2628,1.22483
31.3028,1.22671
31.3428,1.22879
31.3828,1.2311
31.4228,1.23367
31.4628,1.23655
31.5028,1.23978
31.5428,1.24342
31.5828,1.24755
31.6228,1.25226
31.6628,1.25766
31.7028,1.2639
31.7428,1.27116
31.7828,1.27968
31.8228,1.28978
31.8628,1.30187
31.9028,1.31652
31.9428,1.33449
31.9828,1.35684
32.0228,1.3851
32.0628,1.42139
32.1028,1.46882
32.1428,1.53179
32.1828,1.61646
32.2228,1.73059
32.2628,1.88141
32.3028,2.0673
32.3428,2.25946
32.3828,2.38736
32.4228,2.37824
32.4628,2.23913
32.5028,2.04776
32.5428,1.86928
32.5828,1.72722
32.6228,1.62107
32.6628,1.54322
32.7028,1.48608
32.7428,1.44376
32.7828,1.41205
32.8228,1.38803
32.8628,1.36966
32.9028,1.35549
32.9428,1.34452
32.9828,1.33601
33.0228,1.32941
33.0628,1.32433
33.1028,1.32046
33.1428,1.31757
33.1828,1.31547
33.2228,1.31402
33.2628,1.31311
33.3028,1.31265
33.3428,1.31256
33.3828,1.31278
33.4228,1.31325
33.4628,1.31393
33.5028,1.31479
33.5428,1.31579
33.5828,1.31689
33.6228,1.31809
33.6628,1.31935
33.7028,1.32065
33.7428,1.32198
33.7828,1.32331
33.8228,1.32464
33.8628,1.32595
33.9028,1.32723
33.9428,1.32846
33.9828,1.32964
34.0228,1.33075
34.0628,1.33179
34.1028,1.33275
34.1428,1.33362
34.1828,1.3344
34.2228,1.33507
34.2628,1.33565
34.3028,1.33611
34.3428,1.33647
34.3828,1.33671
34.4228,1.33684
34.4628,1.33685
34.5028,1.33676
34.5428,1.33655
34.5828,1.33623
34.6228,1.3358
34.6628,1.33527
34.7028,1.33465
34.7428,1.33395
34.7828,1.33318
34.8228,1.33236
34.8628,1.33151
34.9028,1.33066
34.9428,1.32981
34.9828,1.329
35.0228,1.32825
35.0628,1.3276
35.1028,1.32707
35.1428,1.3267
35.1828,1.32653
35.2228,1.32659
35.2628,1.32692
35.3028,1.32756
35.3428,1.32855
35.3828,1.32991
35.4228,1.3317
35.4628,1.33393
35.5028,1.33664
35.5428,1.33986
35.5828,1.34359
35.6228,1.34785
35.6628,1.35265
35.7028,1.35798
35.7428,1.36382
35.7828,1.37015
35.8228,1.37694
35.8628,1.38413
35.9028,1.39168
35.9428,1.39952
35.9828,1.40757
36.0228,1.41575
36.0628,1.42395
36.1028,1.43208
36.1428,1.44004
36.1828,1.44771
36.2228,1.45497
36.2628,1.46173
36.3028,1.46787
36.3428,1.47329
36.3828,1.47789
36.4228,1.48158
36.4628,1.48429
36.5028,1.48597
36.5428,1.48655
36.5828,1.48601
36.6228,1.48428
36.6628,1.48114
36.7028,1.4766
36.7428,1.47071
36.7828,1.46354
36.8228,1.45519
36.8628,1.44578
36.9028,1.43543
36.9428,1.4243
36.9828,1.41252
37.0228,1.40027
37.0628,1.38769
37.1028,1.37494
37.1428,1.36216
37.1828,1.34949
37.2228,1.33706
37.2628,1.32499
37.3028,1.31336
37.3428,1.30226
37.3828,1.29175
37.4228,1.28189
37.4628,1.27271
37.5028,1.26422
37.5428,1.25644
37.5828,1.24935
37.6228,1.24295
37.6628,1.2372
37.7028,1.23207
37.7428,1.22754
37.7828,1.22354
37.8228,1.22006
37.8628,1.21703
37.9028,1.21441
37.9428,1.21217
37.9828,1.21026
38.0228,1.20863
38.0628,1.20726
38.1028,1.20612
38.1428,1.20516
38.1828,1.20436
38.2228,1.2037
38.2628,1.20316
38.3028,1.20271
38.3428,1.20234
38.3828,1.20204
38.4228,1.2018
38.4628,1.2016
38.5028,1.20144
38.5428,1.2013
38.5828,1.20119
38.6228,1.2011
38.6628,1.20103
38.7028,1.20097
38.7428,1.20092
38.7828,1.20087
38.8228,1.20083
38.8628,1.2008
38.9028,1.20078
38.9428,1.20075
38.9828,1.20073
39.0228,1.20071
39.0628,1.20069
39.1028,1.20068
39.1428,1.20066
39.1828,1.20065
39.2228,1.20064
39.2628,1.20063
39.3028,1.20062
39.3428,1.20061
39.3828,1.2006
39.4228,1.20059
39.4628,1.20058
39.5028,1.20057
39.5428,1.20056
39.5828,1.20055
39.6228,1.20055
39.6628,1.20054
39.7028,1.20053
39.7428,1.20053
39.7828,1.20052
39.8228,1.20051
39.8628,1.20051
39.9028,1.2005
39.9428,1.2005
39.9828,1.20049
40.0228,1.20049
40.0628,1.20048
40.1028,1.20048
40.1428,1.20047
40.1828,1.20047
40.2228,1.20046
40.2628,1.20046
40.3028,1.20045
40.3228,1.20045