File: li_2014/200_xrd/xrd.csv
30.3312, 1.20766
30.7028, 1.23205
31.1034, 1.24536
31.4713, 1.26708
31.7481, 1.26765
31.8559, 1.33864
32.0566, 1.36088
32.111, 1.44093
32.1389, 1.5594
32.163, 1.6628
32.1943, 1.76615
32.2573, 1.86324
32.2773, 1.95156
32.3249, 2.05513
32.3426, 2.15148
32.3445, 2.23473
32.3521, 2.39302
32.3761, 2.306
32.6047, 1.81576
32.6334, 1.71765
32.6388, 1.64805
32.6601, 1.57127
32.733, 1.49156
32.8395, 1.40693
33.111, 1.33973
33.446, 1.35456
33.6106, 1.3094
33.9612, 1.32019
34.3199, 1.32316
34.7223, 1.32802
35.0803, 1.3524
35.4019, 1.31932
35.6625, 1.37014
35.994, 1.39933
36.3288, 1.44138
36.4826, 1.4985
36.7745, 1.49822
36.9474, 1.44437
37.0027, 1.37206
37.2214, 1.30985
37.4957, 1.29263
37.6298, 1.23805
37.9512, 1.2405
38.2483, 1.20779
38.5938, 1.2062
39.0127, 1.19633
39.3641, 1.18551
39.7147, 1.19603
40.1245, 1.21442
40.3321, 1.21501