File: park_2000/900C_xrd/curve_2_fit.dat
33.3714,0.0
33.5214,0.0
33.6714,0.0
33.8214,0.0
33.9714,0.0
34.1214,0.0
34.2714,0.0
34.4214,0.0
34.5714,0.0
34.7214,0.0
34.8714,0.0
35.0214,0.0
35.1714,0.0
35.3214,0.0
35.4714,0.0
35.6214,0.0
35.7714,0.0
35.9214,0.0
36.0714,0.0
36.2214,0.0
36.3714,0.0
36.5214,0.0
36.6714,0.0
36.8214,0.0
36.9714,0.0
37.1214,0.0
37.2714,0.0
37.4214,0.0
37.5714,0.0
37.7214,0.0
37.8714,0.0
38.0214,0.0
38.1714,0.0
38.3214,0.0
38.4714,0.0
38.6214,0.0
38.7714,0.0
38.9214,0.0
39.0714,0.0
39.2214,0.0
39.3714,0.0
39.5214,0.0
39.6714,0.0
39.8214,0.0
39.9714,0.0
40.1214,0.0
40.2714,0.0
40.4214,0.0
40.5714,0.0
40.7214,0.0
40.8714,0.0
41.0214,0.0
41.1714,0.0
41.3214,0.0
41.4714,0.0
41.6214,0.0
41.7714,0.0
41.9214,0.0
42.0714,0.0
42.2214,0.0
42.3714,0.0
42.5214,0.0
42.6714,0.0
42.8214,0.0
42.9714,0.0
43.1214,0.0
43.2714,0.0
43.4214,0.0
43.5714,0.0
43.7214,0.0
43.8714,0.0
44.0214,0.0
44.1714,0.0
44.3214,0.0
44.4714,0.0
44.6214,0.0
44.7714,0.0
44.9214,0.0
45.0714,0.0
45.2214,0.0
45.3714,0.0
45.5214,0.0
45.6714,0.0
45.8214,0.0
45.9714,0.0
46.1214,0.0
46.2714,0.0
46.4214,0.0
46.5714,0.0
46.7214,0.0
46.8714,0.0
47.0214,0.0
47.1714,0.0
47.3214,0.0
47.4714,0.0
47.6214,0.0
47.7714,0.0
47.9214,0.0
48.0714,0.0
48.2214,0.0
48.3714,0.0
48.5214,0.0
48.6714,0.0
48.8214,0.0
48.9714,0.0
49.1214,0.0
49.2714,0.0
49.4214,0.0
49.5714,0.0
49.7214,0.0
49.8714,0.0
50.0214,0.0
50.1714,0.0
50.3214,0.0
50.4714,0.0
50.6214,0.0
50.7714,0.0
50.9214,0.0
51.0714,0.0
51.2214,0.0
51.3714,0.0
51.5214,0.0
51.6714,0.0
51.8214,0.0
51.9714,0.0
52.1214,0.0
52.2714,0.0
52.4214,0.0
52.5714,0.0
52.7214,0.0
52.8714,0.0
53.0214,0.0
53.1714,0.0
53.3214,0.0
53.4714,0.0
53.6214,0.0
53.7714,0.0
53.9214,0.0
54.0714,0.0
54.2214,0.0
54.3714,0.0
54.5214,0.0
54.6714,0.0
54.8214,0.0
54.9714,0.0
55.1214,0.0
55.2714,0.0
55.4214,0.0
55.5714,0.0
55.7214,0.0
55.8714,0.0
56.0214,0.0
56.1714,0.0
56.3214,0.0
56.4714,0.0
56.6214,0.0
56.7714,0.0
56.9214,0.0
57.0714,0.0
57.2214,0.0
57.3714,0.0
57.5214,0.0
57.6714,0.0
57.8214,0.0
57.9714,0.0
58.1214,0.0
58.2714,0.0
58.4214,0.0
58.5714,0.0
58.7214,0.0
58.8714,0.0
59.0214,0.0
59.1714,0.0
59.3214,0.0
59.4714,0.0
59.6214,0.0
59.7714,0.0
59.9214,0.0
60.0714,0.0
60.2214,0.0
60.3714,0.0
60.5214,0.0
60.6714,0.0
60.8214,0.0
60.9714,0.0
61.1214,0.0
61.2714,0.0
61.4214,0.0
61.5714,0.0
61.7214,0.0
61.8714,0.0
62.0214,0.0
62.1714,0.0
62.3214,0.0
62.4714,0.0
62.6214,0.0
62.7714,0.0
62.9214,0.0
63.0714,0.0
63.2214,0.0
63.3714,0.0
63.5214,0.0
63.6714,0.0
63.8214,0.0
63.9714,7.37114e-318
64.1214,1.78504e-307
64.2714,2.89599e-297
64.4214,3.1476e-287
64.5714,2.2919e-277
64.7214,1.11801e-267
64.8714,3.65367e-258
65.0214,7.99923e-249
65.1714,1.17328e-239
65.3214,1.15289e-230
65.4714,7.5894e-222
65.6214,3.34705e-213
65.7714,9.88897e-205
65.9214,1.95737e-196
66.0714,2.59556e-188
66.2214,2.3058e-180
66.3714,1.37229e-172
66.5214,5.47149e-165
66.6714,1.4615e-157
66.8214,2.61533e-150
66.9714,3.13536e-143
67.1214,2.51815e-136
67.2714,1.35491e-129
67.4214,4.88399e-123
67.5714,1.17943e-116
67.7214,1.90811e-110
67.8714,2.06809e-104
68.0214,1.50165e-98
68.1714,7.30471e-93
68.3214,2.38051e-87
68.4714,5.19724e-82
68.6214,7.60166e-77
68.7714,7.44866e-72
68.9214,4.8897e-67
69.0714,2.15041e-62
69.2214,6.33567e-58
69.3714,1.25054e-53
69.5214,1.65363e-49
69.6714,1.46492e-45
69.8214,8.69404e-42
69.9714,3.45672e-38
70.1214,9.20748e-35
70.2714,1.64305e-31
70.4214,1.96425e-28
70.5714,1.57317e-25
70.7214,8.44087e-23
70.8714,3.03413e-20
71.0214,7.3066e-18
71.1714,1.17877e-15
71.3214,1.27403e-13
71.4714,9.22491e-12
71.6214,4.47486e-10
71.7714,1.45422e-08
71.9214,3.16604e-07
72.0714,4.6178e-06
72.2214,4.5122e-05
72.3714,0.000295377
72.5214,0.00129538
72.6714,0.00380586
72.8214,0.00749105
72.9714,0.00987794
73.1214,0.00872618
73.2714,0.00516435
73.4214,0.00204758
73.5714,0.000543878
73.7214,9.67823e-05
73.8714,1.15378e-05
74.0214,9.2148e-07
74.1714,4.9304e-08
74.3214,1.76731e-09
74.3714,5.33085e-10