File: park_2003/1000_xrd/curve_total_fit.dat
33.3346,0.921195
33.4846,0.921527
33.6346,0.922019
33.7846,0.922793
33.9346,0.924115
34.0846,0.926653
34.2346,0.932518
34.3846,0.951473
34.5346,1.08783
34.6846,1.32925
34.8346,0.967105
34.9846,0.936048
35.1346,0.927956
35.2846,0.924731
35.4346,0.923131
35.5846,0.922224
35.7346,0.921661
35.8846,0.921287
36.0346,0.921027
36.1846,0.920838
36.3346,0.920697
36.4846,0.920589
36.6346,0.920504
36.7846,0.920436
36.9346,0.920381
37.0846,0.920336
37.2346,0.920298
37.3846,0.920267
37.5346,0.92024
37.6846,0.920217
37.8346,0.920197
37.9846,0.92018
38.1346,0.920165
38.2846,0.920152
38.4346,0.92014
38.5846,0.92013
38.7346,0.92012
38.8846,0.920112
39.0346,0.920105
39.1846,0.920098
39.3346,0.920092
39.4846,0.920086
39.6346,0.920081
39.7846,0.920076
39.9346,0.920072
40.0846,0.920068
40.2346,0.920065
40.3846,0.920061
40.5346,0.920058
40.6846,0.920056
40.8346,0.920053
40.9846,0.92005
41.1346,0.920048
41.2846,0.920046
41.4346,0.920044
41.5846,0.920042
41.7346,0.920041
41.8846,0.920039
42.0346,0.920037
42.1846,0.920036
42.3346,0.920035
42.4846,0.920033
42.6346,0.920032
42.7846,0.920031
42.9346,0.92003
43.0846,0.920029
43.2346,0.920028
43.3846,0.920027
43.5346,0.920026
43.6846,0.920025
43.8346,0.920024
43.9846,0.920024
44.1346,0.920023
44.2846,0.920022
44.4346,0.920022
44.5846,0.920021
44.7346,0.92002
44.8846,0.92002
45.0346,0.920019
45.1846,0.920019
45.3346,0.920018
45.4846,0.920018
45.6346,0.920017
45.7846,0.920017
45.9346,0.920016
46.0846,0.920016
46.2346,0.920016
46.3846,0.920015
46.5346,0.920015
46.6846,0.920015
46.8346,0.920014
46.9846,0.920014
47.1346,0.920014
47.2846,0.920013
47.4346,0.920013
47.5846,0.920013
47.7346,0.920013
47.8846,0.920012
48.0346,0.920012
48.1846,0.920012
48.3346,0.920012
48.4846,0.920011
48.6346,0.920011
48.7846,0.920011
48.9346,0.920011
49.0846,0.920011
49.2346,0.92001
49.3846,0.92001
49.5346,0.92001
49.6846,0.92001
49.8346,0.92001
49.9846,0.920009
50.1346,0.920009
50.2846,0.920009
50.4346,0.920009
50.5846,0.920009
50.7346,0.920009
50.8846,0.920009
51.0346,0.920009
51.1846,0.920008
51.3346,0.920008
51.4846,0.920008
51.6346,0.920008
51.7846,0.920008
51.9346,0.920008
52.0846,0.920008
52.2346,0.920008
52.3846,0.920008
52.5346,0.920007
52.6846,0.920007
52.8346,0.920007
52.9846,0.920007
53.1346,0.920007
53.2846,0.920007
53.4346,0.920007
53.5846,0.920007
53.7346,0.920007
53.8846,0.920007
54.0346,0.920007
54.1846,0.920007
54.3346,0.920007
54.4846,0.920007
54.6346,0.920006
54.7846,0.920006
54.9346,0.920006
55.0846,0.920006
55.2346,0.920006
55.3846,0.920006
55.5346,0.920006
55.6846,0.920006
55.8346,0.920006
55.9846,0.920006
56.1346,0.920006
56.2846,0.920006
56.4346,0.920006
56.5846,0.920006
56.7346,0.920006
56.8846,0.920006
57.0346,0.920006
57.1846,0.920006
57.3346,0.920006
57.4846,0.920006
57.6346,0.920006
57.7846,0.920006
57.9346,0.920006
58.0846,0.920006
58.2346,0.920006
58.3846,0.920006
58.5346,0.920006
58.6846,0.920006
58.8346,0.920006
58.9846,0.920006
59.1346,0.920006
59.2846,0.920006
59.4346,0.920006
59.5846,0.920006
59.7346,0.920006
59.8846,0.920006
60.0346,0.920006
60.1846,0.920006
60.3346,0.920006
60.4846,0.920006
60.6346,0.920006
60.7846,0.920006
60.9346,0.920006
61.0846,0.920006
61.2346,0.920006
61.3846,0.920006
61.5346,0.920007
61.6846,0.920007
61.8346,0.920007
61.9846,0.920007
62.1346,0.920007
62.2846,0.920007
62.4346,0.920007
62.5846,0.920007
62.7346,0.920007
62.8846,0.920007
63.0346,0.920007
63.1846,0.920008
63.3346,0.920008
63.4846,0.920008
63.6346,0.920008
63.7846,0.920008
63.9346,0.920008
64.0846,0.920008
64.2346,0.920009
64.3846,0.920009
64.5346,0.920009
64.6846,0.920009
64.8346,0.92001
64.9846,0.92001
65.1346,0.92001
65.2846,0.92001
65.4346,0.920011
65.5846,0.920011
65.7346,0.920011
65.8846,0.920012
66.0346,0.920012
66.1846,0.920013
66.3346,0.920013
66.4846,0.920013
66.6346,0.920014
66.7846,0.920015
66.9346,0.920015
67.0846,0.920016
67.2346,0.920017
67.3846,0.920017
67.5346,0.920018
67.6846,0.920019
67.8346,0.92002
67.9846,0.920021
68.1346,0.920022
68.2846,0.920024
68.4346,0.920025
68.5846,0.920027
68.7346,0.920029
68.8846,0.920031
69.0346,0.920033
69.1846,0.920035
69.3346,0.920038
69.4846,0.920041
69.6346,0.920045
69.7846,0.920049
69.9346,0.920053
70.0846,0.920059
70.2346,0.920065
70.3846,0.920073
70.5346,0.920082
70.6846,0.920092
70.8346,0.920105
70.9846,0.920121
71.1346,0.920141
71.2846,0.920166
71.4346,0.920199
71.5846,0.920243
71.7346,0.920303
71.8846,0.920389
72.0346,0.920516
72.1846,0.920718
72.3346,0.921064
72.4846,0.921732
72.6346,0.923259
72.7846,0.927791
72.9346,0.943883
73.0846,0.941047
73.2346,0.926884
73.3846,0.922984
73.5346,0.921621
73.6846,0.92101
73.7346,0.920881