File: park_2003/1000_xrd/curve_1_fit.dat
33.3346,0.0011949
33.4846,0.00152678
33.6346,0.00201875
33.7846,0.002793
33.9346,0.00411487
34.0846,0.00665314
34.2346,0.0125174
34.3846,0.0314729
34.5346,0.167834
34.6846,0.409246
34.8346,0.047105
34.9846,0.0160474
35.1346,0.00795534
35.2846,0.00473062
35.4346,0.00313111
35.5846,0.00222389
35.7346,0.00166044
35.8846,0.00128677
36.0346,0.00102635
36.1846,0.000837648
36.3346,0.000696569
36.4846,0.00058834
36.6346,0.000503502
36.7846,0.000435772
36.9346,0.000380841
37.0846,0.000335676
37.2346,0.000298093
37.3846,0.000266486
37.5346,0.000239651
37.6846,0.000216674
37.8346,0.000196849
37.9846,0.000179626
38.1346,0.000164568
38.2846,0.000151327
38.4346,0.000139622
38.5846,0.000129224
38.7346,0.000119946
38.8846,0.000111632
39.0346,0.000104154
39.1846,9.74024e-05
39.3346,9.12868e-05
39.4846,8.57296e-05
39.6346,8.06648e-05
39.7846,7.60359e-05
39.9346,7.17943e-05
40.0846,6.7898e-05
40.2346,6.43104e-05
40.3846,6.09999e-05
40.5346,5.79385e-05
40.6846,5.51019e-05
40.8346,5.24687e-05
40.9846,5.00198e-05
41.1346,4.77384e-05
41.2846,4.56096e-05
41.4346,4.36201e-05
41.5846,4.1758e-05
41.7346,4.00126e-05
41.8846,3.83744e-05
42.0346,3.68348e-05
42.1846,3.53861e-05
42.3346,3.40211e-05
42.4846,3.27336e-05
42.6346,3.15179e-05
42.7846,3.03686e-05
42.9346,2.92811e-05
43.0846,2.82509e-05
43.2346,2.72742e-05
43.3846,2.63473e-05
43.5346,2.54668e-05
43.6846,2.46298e-05
43.8346,2.38333e-05
43.9846,2.30749e-05
44.1346,2.23521e-05
44.2846,2.16627e-05
44.4346,2.10047e-05
44.5846,2.03763e-05
44.7346,1.97756e-05
44.8846,1.92012e-05
45.0346,1.86514e-05
45.1846,1.81248e-05
45.3346,1.76203e-05
45.4846,1.71365e-05
45.6346,1.66724e-05
45.7846,1.62269e-05
45.9346,1.5799e-05
46.0846,1.53879e-05
46.2346,1.49925e-05
46.3846,1.46122e-05
46.5346,1.42462e-05
46.6846,1.38938e-05
46.8346,1.35543e-05
46.9846,1.32271e-05
47.1346,1.29116e-05
47.2846,1.26072e-05
47.4346,1.23135e-05
47.5846,1.20299e-05
47.7346,1.1756e-05
47.8846,1.14914e-05
48.0346,1.12356e-05
48.1846,1.09883e-05
48.3346,1.0749e-05
48.4846,1.05174e-05
48.6346,1.02933e-05
48.7846,1.00762e-05
48.9346,9.86598e-06
49.0846,9.66224e-06
49.2346,9.46474e-06
49.3846,9.27323e-06
49.5346,9.08748e-06
49.6846,8.90726e-06
49.8346,8.73234e-06
49.9846,8.56253e-06
50.1346,8.39762e-06
50.2846,8.23743e-06
50.4346,8.08178e-06
50.5846,7.9305e-06
50.7346,7.78343e-06
50.8846,7.64041e-06
51.0346,7.5013e-06
51.1846,7.36595e-06
51.3346,7.23424e-06
51.4846,7.10602e-06
51.6346,6.98118e-06
51.7846,6.85961e-06
51.9346,6.74118e-06
52.0846,6.6258e-06
52.2346,6.51335e-06
52.3846,6.40374e-06
52.5346,6.29687e-06
52.6846,6.19266e-06
52.8346,6.09101e-06
52.9846,5.99184e-06
53.1346,5.89508e-06
53.2846,5.80064e-06
53.4346,5.70845e-06
53.5846,5.61845e-06
53.7346,5.53055e-06
53.8846,5.44471e-06
54.0346,5.36084e-06
54.1846,5.2789e-06
54.3346,5.19882e-06
54.4846,5.12055e-06
54.6346,5.04404e-06
54.7846,4.96923e-06
54.9346,4.89607e-06
55.0846,4.82451e-06
55.2346,4.75451e-06
55.3846,4.68602e-06
55.5346,4.61901e-06
55.6846,4.55342e-06
55.8346,4.48921e-06
55.9846,4.42636e-06
56.1346,4.36482e-06
56.2846,4.30455e-06
56.4346,4.24552e-06
56.5846,4.18769e-06
56.7346,4.13104e-06
56.8846,4.07554e-06
57.0346,4.02114e-06
57.1846,3.96782e-06
57.3346,3.91556e-06
57.4846,3.86433e-06
57.6346,3.81409e-06
57.7846,3.76483e-06
57.9346,3.71651e-06
58.0846,3.66912e-06
58.2346,3.62263e-06
58.3846,3.57702e-06
58.5346,3.53226e-06
58.6846,3.48834e-06
58.8346,3.44523e-06
58.9846,3.40292e-06
59.1346,3.36138e-06
59.2846,3.3206e-06
59.4346,3.28055e-06
59.5846,3.24123e-06
59.7346,3.20261e-06
59.8846,3.16467e-06
60.0346,3.12741e-06
60.1846,3.0908e-06
60.3346,3.05482e-06
60.4846,3.01948e-06
60.6346,2.98474e-06
60.7846,2.9506e-06
60.9346,2.91704e-06
61.0846,2.88405e-06
61.2346,2.85161e-06
61.3846,2.81972e-06
61.5346,2.78837e-06
61.6846,2.75753e-06
61.8346,2.7272e-06
61.9846,2.69737e-06
62.1346,2.66803e-06
62.2846,2.63916e-06
62.4346,2.61076e-06
62.5846,2.58281e-06
62.7346,2.55531e-06
62.8846,2.52825e-06
63.0346,2.50161e-06
63.1846,2.4754e-06
63.3346,2.44959e-06
63.4846,2.42419e-06
63.6346,2.39918e-06
63.7846,2.37455e-06
63.9346,2.3503e-06
64.0846,2.32642e-06
64.2346,2.3029e-06
64.3846,2.27974e-06
64.5346,2.25692e-06
64.6846,2.23445e-06
64.8346,2.21231e-06
64.9846,2.1905e-06
65.1346,2.169e-06
65.2846,2.14783e-06
65.4346,2.12696e-06
65.5846,2.10639e-06
65.7346,2.08612e-06
65.8846,2.06615e-06
66.0346,2.04645e-06
66.1846,2.02704e-06
66.3346,2.0079e-06
66.4846,1.98904e-06
66.6346,1.97043e-06
66.7846,1.95209e-06
66.9346,1.934e-06
67.0846,1.91617e-06
67.2346,1.89857e-06
67.3846,1.88122e-06
67.5346,1.86411e-06
67.6846,1.84723e-06
67.8346,1.83057e-06
67.9846,1.81414e-06
68.1346,1.79794e-06
68.2846,1.78194e-06
68.4346,1.76616e-06
68.5846,1.75059e-06
68.7346,1.73522e-06
68.8846,1.72006e-06
69.0346,1.70509e-06
69.1846,1.69032e-06
69.3346,1.67574e-06
69.4846,1.66134e-06
69.6346,1.64714e-06
69.7846,1.63311e-06
69.9346,1.61926e-06
70.0846,1.60558e-06
70.2346,1.59208e-06
70.3846,1.57875e-06
70.5346,1.56559e-06
70.6846,1.55259e-06
70.8346,1.53975e-06
70.9846,1.52707e-06
71.1346,1.51454e-06
71.2846,1.50217e-06
71.4346,1.48995e-06
71.5846,1.47788e-06
71.7346,1.46595e-06
71.8846,1.45417e-06
72.0346,1.44253e-06
72.1846,1.43103e-06
72.3346,1.41966e-06
72.4846,1.40843e-06
72.6346,1.39734e-06
72.7846,1.38637e-06
72.9346,1.37553e-06
73.0846,1.36482e-06
73.2346,1.35423e-06
73.3846,1.34377e-06
73.5346,1.33343e-06
73.6846,1.3232e-06
73.7346,1.31982e-06