File: li_2014/100_xrd/curve_1_fit.dat
29.1813,0.00217629
29.2213,0.00223129
29.2613,0.00228839
29.3013,0.00234772
29.3413,0.00240937
29.3813,0.00247349
29.4213,0.0025402
29.4613,0.00260964
29.5013,0.00268197
29.5413,0.00275734
29.5813,0.00283593
29.6213,0.00291793
29.6613,0.00300353
29.7013,0.00309295
29.7413,0.00318642
29.7813,0.00328419
29.8213,0.00338652
29.8613,0.00349371
29.9013,0.00360605
29.9413,0.0037239
29.9813,0.00384762
30.0213,0.00397759
30.0613,0.00411426
30.1013,0.00425808
30.1413,0.00440956
30.1813,0.00456926
30.2213,0.00473779
30.2613,0.00491579
30.3013,0.005104
30.3413,0.00530321
30.3813,0.0055143
30.4213,0.00573821
30.4613,0.00597602
30.5013,0.00622889
30.5413,0.00649812
30.5813,0.00678515
30.6213,0.00709158
30.6613,0.0074192
30.7013,0.00776999
30.7413,0.00814619
30.7813,0.0085503
30.8213,0.00898515
30.8613,0.00945393
30.9013,0.00996025
30.9413,0.0105082
30.9813,0.0111025
31.0213,0.0117484
31.0613,0.0124522
31.1013,0.0132208
31.1413,0.0140625
31.1813,0.0149868
31.2213,0.0160048
31.2613,0.0171294
31.3013,0.0183762
31.3413,0.0197632
31.3813,0.0213121
31.4213,0.0230491
31.4613,0.0250054
31.5013,0.0272192
31.5413,0.0297373
31.5813,0.0326175
31.6213,0.0359317
31.6613,0.0397703
31.7013,0.044248
31.7413,0.0495124
31.7813,0.0557548
31.8213,0.063227
31.8613,0.0722649
31.9013,0.0833225
31.9413,0.0970236
31.9813,0.114239
32.0213,0.136202
32.0613,0.164687
32.1013,0.202272
32.1413,0.252706
32.1813,0.321325
32.2213,0.415163
32.2613,0.541451
32.3013,0.700913
32.3413,0.870961
32.3813,0.988899
32.4213,0.984331
32.4613,0.860411
32.5013,0.689572
32.5413,0.531989
32.5813,0.408009
32.6213,0.316082
32.6613,0.248869
32.7013,0.199432
32.7413,0.162551
32.7813,0.134567
32.8213,0.112967
32.8613,0.0960181
32.9013,0.0825159
32.9413,0.0716092
32.9813,0.0626876
33.0213,0.0553062
33.0613,0.0491356
33.1013,0.0439288
33.1413,0.0394975
33.1813,0.035697
33.2213,0.0324141
33.2613,0.02956
33.3013,0.0270636
33.3413,0.0248682
33.3813,0.0229275
33.4213,0.021204
33.4613,0.0196665
33.5013,0.0182894
33.5413,0.0170513
33.5813,0.0159341
33.6213,0.0149228
33.6613,0.0140043
33.7013,0.0131677
33.7413,0.0124036
33.7813,0.0117039
33.8213,0.0110616
33.8613,0.0104705
33.9013,0.00992546
33.9413,0.00942175
33.9813,0.00895532
34.0213,0.0085226
34.0613,0.00812042
34.1013,0.00774598
34.1413,0.00739679
34.1813,0.00707064
34.2213,0.00676555
34.2613,0.00647975
34.3013,0.00621164
34.3413,0.00595981
34.3813,0.00572295
34.4213,0.00549992
34.4613,0.00528965
34.5013,0.0050912
34.5413,0.00490369
34.5813,0.00472633
34.6213,0.00455841
34.6613,0.00439928
34.7013,0.00424832
34.7413,0.00410498
34.7813,0.00396878
34.8213,0.00383923
34.8613,0.00371592
34.9013,0.00359844
34.9413,0.00348645
34.9813,0.00337959
35.0213,0.00327757
35.0613,0.0031801
35.1013,0.0030869
35.1413,0.00299774
35.1813,0.00291239
35.2213,0.00283062
35.2613,0.00275225
35.3013,0.00267708
35.3413,0.00260495
35.3813,0.0025357
35.4213,0.00246916
35.4613,0.00240521
35.5013,0.00234371
35.5413,0.00228454
35.5813,0.00222758
35.6213,0.00217272
35.6613,0.00211986
35.7013,0.00206891
35.7413,0.00201977
35.7813,0.00197236
35.8213,0.0019266
35.8613,0.00188241
35.9013,0.00183972
35.9413,0.00179847
35.9813,0.00175859
36.0213,0.00172002
36.0613,0.00168271
36.1013,0.00164659
36.1413,0.00161163
36.1813,0.00157777
36.2213,0.00154496
36.2613,0.00151317
36.3013,0.00148234
36.3413,0.00145245
36.3813,0.00142345
36.4213,0.00139531
36.4613,0.001368
36.5013,0.00134148
36.5413,0.00131573
36.5813,0.00129071
36.6213,0.00126639
36.6613,0.00124276
36.7013,0.00121978
36.7413,0.00119743
36.7813,0.00117569
36.8213,0.00115454
36.8613,0.00113395
36.9013,0.00111391
36.9413,0.0010944
36.9813,0.00107539
37.0213,0.00105687
37.0613,0.00103883
37.1013,0.00102125
37.1413,0.00100411
37.1813,0.000987393
37.2213,0.000971093
37.2613,0.000955193
37.3013,0.000939681
37.3413,0.000924543
37.3813,0.000909768
37.4213,0.000895344
37.4613,0.00088126
37.5013,0.000867506
37.5413,0.000854072
37.5813,0.000840947
37.6213,0.000828122
37.6613,0.000815588
37.7013,0.000803337
37.7413,0.000791359
37.7813,0.000779647
37.8213,0.000768194
37.8613,0.00075699
37.9013,0.00074603
37.9413,0.000735307
37.9813,0.000724813
38.0213,0.000714541
38.0613,0.000704487
38.1013,0.000694643
38.1413,0.000685004
38.1813,0.000675565
38.2213,0.000666319
38.2613,0.000657261
38.3013,0.000648387
38.3413,0.000639691
38.3813,0.00063117
38.4213,0.000622817
38.4613,0.000614629
38.5013,0.000606601
38.5413,0.00059873
38.5813,0.00059101
38.6213,0.000583439
38.6613,0.000576013
38.7013,0.000568727
38.7413,0.000561579
38.7813,0.000554565
38.8213,0.000547681
38.8613,0.000540925
38.9013,0.000534292