File: li_2014/100_xrd/curve_2_fit.dat
29.1813,1.49954e-20
29.2213,2.413e-20
29.2613,3.87285e-20
29.3013,6.19977e-20
29.3413,9.89903e-20
29.3813,1.57646e-19
29.4213,2.50406e-19
29.4613,3.96715e-19
29.5013,6.26881e-19
29.5413,9.88016e-19
29.5813,1.55316e-18
29.6213,2.43523e-18
29.6613,3.80834e-18
29.7013,5.94024e-18
29.7413,9.24155e-18
29.7813,1.43403e-17
29.8213,2.21944e-17
29.8613,3.42611e-17
29.9013,5.27512e-17
29.9413,8.10093e-17
29.9813,1.24082e-16
30.0213,1.89565e-16
30.0613,2.88853e-16
30.1013,4.39005e-16
30.1413,6.65479e-16
30.1813,1.00617e-15
30.2213,1.51733e-15
30.2613,2.28225e-15
30.3013,3.42387e-15
30.3413,5.12323e-15
30.3813,7.64614e-15
30.4213,1.13819e-14
30.4613,1.68989e-14
30.5013,2.5025e-14
30.5413,3.69625e-14
30.5813,5.44531e-14
30.6213,8.00121e-14
30.6613,1.17263e-13
30.7013,1.71411e-13
30.7413,2.49913e-13
30.7813,3.63423e-13
30.8213,5.27117e-13
30.8613,7.62561e-13
30.9013,1.10031e-12
30.9413,1.58353e-12
30.9813,2.27306e-12
31.0213,3.25438e-12
31.0613,4.64726e-12
31.1013,6.6191e-12
31.1413,9.40313e-12
31.1813,1.33235e-11
31.2213,1.88295e-11
31.2613,2.65417e-11
31.3013,3.73158e-11
31.3413,5.23273e-11
31.3813,7.31875e-11
31.4213,1.02098e-10
31.4613,1.42059e-10
31.5013,1.97149e-10
31.5413,2.72894e-10
31.5813,3.76759e-10
31.6213,5.18807e-10
31.6613,7.12559e-10
31.7013,9.76131e-10
31.7413,1.33373e-09
31.7813,1.81761e-09
31.8213,2.47061e-09
31.8613,3.34951e-09
31.9013,4.52929e-09
31.9413,6.10874e-09
31.9813,8.21761e-09
32.0213,1.10258e-08
32.0613,1.47554e-08
32.1013,1.96952e-08
32.1413,2.62207e-08
32.1813,3.48177e-08
32.2213,4.61136e-08
32.2613,6.09157e-08
32.3013,8.02605e-08
32.3413,1.05474e-07
32.3813,1.3825e-07
32.4213,1.8074e-07
32.4613,2.35677e-07
32.5013,3.06515e-07
32.5413,3.97612e-07
32.5813,5.14444e-07
32.6213,6.63881e-07
32.6613,8.54505e-07
32.7013,1.09701e-06
32.7413,1.40469e-06
32.7813,1.794e-06
32.8213,2.28526e-06
32.8613,2.9035e-06
32.9013,3.67942e-06
32.9413,4.65062e-06
32.9813,5.86292e-06
33.0213,7.37207e-06
33.0613,9.24565e-06
33.1013,1.15653e-05
33.1413,1.44295e-05
33.1813,1.79563e-05
33.2213,2.22871e-05
33.2613,2.75907e-05
33.3013,3.40679e-05
33.3413,4.19566e-05
33.3813,5.15379e-05
33.4213,6.31431e-05
33.4613,7.7161e-05
33.5013,9.40464e-05
33.5413,0.00011433
33.5813,0.000138627
33.6213,0.000167652
33.6613,0.000202228
33.7013,0.000243303
33.7413,0.000291962
33.7813,0.000349444
33.8213,0.000417158
33.8613,0.000496702
33.9013,0.00058988
33.9413,0.000698721
33.9813,0.000825499
34.0213,0.00097275
34.0613,0.0011433
34.1013,0.00134026
34.1413,0.00156708
34.1813,0.00182753
34.2213,0.00212575
34.2613,0.00246622
34.3013,0.00285379
34.3413,0.00329372
34.3813,0.0037916
34.4213,0.00435343
34.4613,0.00498555
34.5013,0.00569464
34.5413,0.00648772
34.5813,0.00737208
34.6213,0.00835527
34.6613,0.00944504
34.7013,0.0106492
34.7413,0.0119759
34.7813,0.0134328
34.8213,0.0150279
34.8613,0.0167689
34.9013,0.018663
34.9413,0.0207172
34.9813,0.0229379
35.0213,0.0253307
35.0613,0.0279006
35.1013,0.0306516
35.1413,0.0335865
35.1813,0.0367069
35.2213,0.0400133
35.2613,0.0435044
35.3013,0.0471774
35.3413,0.0510278
35.3813,0.0550494
35.4213,0.059234
35.4613,0.0635713
35.5013,0.0680494
35.5413,0.072654
35.5813,0.077369
35.6213,0.0821763
35.6613,0.0870561
35.7013,0.0919864
35.7413,0.096944
35.7813,0.101904
35.8213,0.10684
35.8613,0.111724
35.9013,0.116529
35.9413,0.121225
35.9813,0.125783
36.0213,0.130175
36.0613,0.13437
36.1013,0.138341
36.1413,0.14206
36.1813,0.145501
36.2213,0.148638
36.2613,0.15145
36.3013,0.153914
36.3413,0.156013
36.3813,0.157731
36.4213,0.159054
36.4613,0.159972
36.5013,0.160478
36.5413,0.160564
36.5813,0.160149
36.6213,0.159208
36.6613,0.157751
36.7013,0.155791
36.7413,0.153348
36.7813,0.150446
36.8213,0.147112
36.8613,0.143377
36.9013,0.139275
36.9413,0.134845
36.9813,0.130125
37.0213,0.125157
37.0613,0.11998
37.1013,0.114639
37.1413,0.109174
37.1813,0.103626
37.2213,0.098036
37.2613,0.0924415
37.3013,0.0868788
37.3413,0.0813814
37.3813,0.0759804
37.4213,0.0707038
37.4613,0.0655767
37.5013,0.0606207
37.5413,0.0558544
37.5813,0.0512931
37.6213,0.0469489
37.6613,0.0428309
37.7013,0.0389452
37.7413,0.0352952
37.7813,0.0318818
37.8213,0.0287034
37.8613,0.0257567
37.9013,0.0230363
37.9413,0.0205352
37.9813,0.0182453
38.0213,0.0161572
38.0613,0.014261
38.1013,0.0125457
38.1413,0.0110004
38.1813,0.00961356
38.2213,0.00837387
38.2613,0.00726997
38.3013,0.00629078
38.3413,0.00542552
38.3813,0.00466384
38.4213,0.00399586
38.4613,0.00341226
38.5013,0.00290428
38.5413,0.00246377
38.5813,0.00208318
38.6213,0.00175558
38.6613,0.00147461
38.7013,0.00123452
38.7413,0.00103011
38.7813,0.000856717
38.8213,0.000710157
38.8613,0.000586728
38.9013,0.000483152