File: li_2014/100_xrd/curve_total_fit.dat
29.1813,0.152176
29.2213,0.152231
29.2613,0.152288
29.3013,0.152348
29.3413,0.152409
29.3813,0.152473
29.4213,0.15254
29.4613,0.15261
29.5013,0.152682
29.5413,0.152757
29.5813,0.152836
29.6213,0.152918
29.6613,0.153004
29.7013,0.153093
29.7413,0.153186
29.7813,0.153284
29.8213,0.153387
29.8613,0.153494
29.9013,0.153606
29.9413,0.153724
29.9813,0.153848
30.0213,0.153978
30.0613,0.154114
30.1013,0.154258
30.1413,0.15441
30.1813,0.154569
30.2213,0.154738
30.2613,0.154916
30.3013,0.155104
30.3413,0.155303
30.3813,0.155514
30.4213,0.155738
30.4613,0.155976
30.5013,0.156229
30.5413,0.156498
30.5813,0.156785
30.6213,0.157092
30.6613,0.157419
30.7013,0.15777
30.7413,0.158146
30.7813,0.15855
30.8213,0.158985
30.8613,0.159454
30.9013,0.15996
30.9413,0.160508
30.9813,0.161102
31.0213,0.161748
31.0613,0.162452
31.1013,0.163221
31.1413,0.164063
31.1813,0.164987
31.2213,0.166005
31.2613,0.167129
31.3013,0.168376
31.3413,0.169763
31.3813,0.171312
31.4213,0.173049
31.4613,0.175005
31.5013,0.177219
31.5413,0.179737
31.5813,0.182618
31.6213,0.185932
31.6613,0.18977
31.7013,0.194248
31.7413,0.199512
31.7813,0.205755
31.8213,0.213227
31.8613,0.222265
31.9013,0.233322
31.9413,0.247024
31.9813,0.264239
32.0213,0.286202
32.0613,0.314687
32.1013,0.352272
32.1413,0.402706
32.1813,0.471325
32.2213,0.565163
32.2613,0.691451
32.3013,0.850913
32.3413,1.02096
32.3813,1.1389
32.4213,1.13433
32.4613,1.01041
32.5013,0.839572
32.5413,0.681989
32.5813,0.558009
32.6213,0.466082
32.6613,0.39887
32.7013,0.349433
32.7413,0.312552
32.7813,0.284569
32.8213,0.262969
32.8613,0.246021
32.9013,0.23252
32.9413,0.221614
32.9813,0.212693
33.0213,0.205314
33.0613,0.199145
33.1013,0.19394
33.1413,0.189512
33.1813,0.185715
33.2213,0.182436
33.2613,0.179588
33.3013,0.177098
33.3413,0.17491
33.3813,0.172979
33.4213,0.171267
33.4613,0.169744
33.5013,0.168383
33.5413,0.167166
33.5813,0.166073
33.6213,0.16509
33.6613,0.164207
33.7013,0.163411
33.7413,0.162696
33.7813,0.162053
33.8213,0.161479
33.8613,0.160967
33.9013,0.160515
33.9413,0.16012
33.9813,0.159781
34.0213,0.159495
34.0613,0.159264
34.1013,0.159086
34.1413,0.158964
34.1813,0.158898
34.2213,0.158891
34.2613,0.158946
34.3013,0.159065
34.3413,0.159254
34.3813,0.159515
34.4213,0.159853
34.4613,0.160275
34.5013,0.160786
34.5413,0.161391
34.5813,0.162098
34.6213,0.162914
34.6613,0.163844
34.7013,0.164898
34.7413,0.166081
34.7813,0.167402
34.8213,0.168867
34.8613,0.170485
34.9013,0.172261
34.9413,0.174204
34.9813,0.176317
35.0213,0.178608
35.0613,0.181081
35.1013,0.183738
35.1413,0.186584
35.1813,0.189619
35.2213,0.192844
35.2613,0.196257
35.3013,0.199854
35.3413,0.203633
35.3813,0.207585
35.4213,0.211703
35.4613,0.215977
35.5013,0.220393
35.5413,0.224938
35.5813,0.229597
35.6213,0.234349
35.6613,0.239176
35.7013,0.244055
35.7413,0.248964
35.7813,0.253876
35.8213,0.258766
35.8613,0.263606
35.9013,0.268368
35.9413,0.273023
35.9813,0.277542
36.0213,0.281895
36.0613,0.286053
36.1013,0.289988
36.1413,0.293672
36.1813,0.297078
36.2213,0.300183
36.2613,0.302963
36.3013,0.305397
36.3413,0.307466
36.3813,0.309154
36.4213,0.310449
36.4613,0.31134
36.5013,0.31182
36.5413,0.31188
36.5813,0.31144
36.6213,0.310475
36.6613,0.308994
36.7013,0.307011
36.7413,0.304546
36.7813,0.301622
36.8213,0.298266
36.8613,0.294511
36.9013,0.290389
36.9413,0.28594
36.9813,0.281201
37.0213,0.276213
37.0613,0.271019
37.1013,0.26566
37.1413,0.260178
37.1813,0.254614
37.2213,0.249007
37.2613,0.243397
37.3013,0.237818
37.3413,0.232306
37.3813,0.22689
37.4213,0.221599
37.4613,0.216458
37.5013,0.211488
37.5413,0.206709
37.5813,0.202134
37.6213,0.197777
37.6613,0.193647
37.7013,0.189749
37.7413,0.186087
37.7813,0.182661
37.8213,0.179472
37.8613,0.176514
37.9013,0.173782
37.9413,0.171271
37.9813,0.16897
38.0213,0.166872
38.0613,0.164965
38.1013,0.16324
38.1413,0.161685
38.1813,0.160289
38.2213,0.15904
38.2613,0.157927
38.3013,0.156939
38.3413,0.156065
38.3813,0.155295
38.4213,0.154619
38.4613,0.154027
38.5013,0.153511
38.5413,0.153063
38.5813,0.152674
38.6213,0.152339
38.6613,0.152051
38.7013,0.151803
38.7413,0.151592
38.7813,0.151411
38.8213,0.151258
38.8613,0.151128
38.9013,0.151017