File: li_2014/100_xrd/xrd.csv
28.7739, 0.135348
29.1813, 0.138652
29.5047, 0.134428
29.9239, 0.140281
30.2963, 0.142759
30.685, 0.149787
31.0512, 0.162387
31.4169, 0.175447
31.8043, 0.200541
32.0247, 0.2846
32.1181, 0.372465
32.1832, 0.456989
32.2044, 0.530937
32.2513, 0.627124
32.2785, 0.738392
32.3137, 0.897427
32.3651, 0.991019
32.3661, 0.807595
32.3797, 1.08047
32.4137, 1.13603
32.5872, 0.570942
32.5948, 0.767268
32.5994, 0.86371
32.6049, 0.666577
32.6051, 0.985214
32.6241, 0.501836
32.6691, 0.427714
32.7642, 0.340637
32.8986, 0.245836
33.177, 0.217656
33.5125, 0.208994
33.8934, 0.202644
34.2742, 0.196712
34.5655, 0.151495
34.665, 0.222106
35.0023, 0.222476
35.2588, 0.225198
35.5248, 0.233835
35.8294, 0.263043
36.1612, 0.280729
36.5254, 0.307775
36.8688, 0.281088
37.1625, 0.257315
37.4738, 0.223651
37.7609, 0.190263
38.0153, 0.149657
38.3282, 0.165018
38.6286, 0.14267
38.9031, 0.133815