File: kim_2002/xrd/curve_2_fit.dat
32.4056,0.0
32.5556,0.0
32.7056,0.0
32.8556,0.0
33.0056,0.0
33.1556,0.0
33.3056,0.0
33.4556,0.0
33.6056,0.0
33.7556,0.0
33.9056,0.0
34.0556,0.0
34.2056,0.0
34.3556,0.0
34.5056,0.0
34.6556,0.0
34.8056,0.0
34.9556,0.0
35.1056,0.0
35.2556,0.0
35.4056,0.0
35.5556,0.0
35.7056,0.0
35.8556,0.0
36.0056,0.0
36.1556,0.0
36.3056,0.0
36.4556,0.0
36.6056,0.0
36.7556,0.0
36.9056,0.0
37.0556,0.0
37.2056,0.0
37.3556,0.0
37.5056,0.0
37.6556,0.0
37.8056,0.0
37.9556,0.0
38.1056,0.0
38.2556,0.0
38.4056,0.0
38.5556,0.0
38.7056,0.0
38.8556,0.0
39.0056,0.0
39.1556,0.0
39.3056,0.0
39.4556,0.0
39.6056,0.0
39.7556,0.0
39.9056,0.0
40.0556,0.0
40.2056,0.0
40.3556,0.0
40.5056,0.0
40.6556,0.0
40.8056,0.0
40.9556,0.0
41.1056,0.0
41.2556,0.0
41.4056,0.0
41.5556,0.0
41.7056,0.0
41.8556,0.0
42.0056,0.0
42.1556,0.0
42.3056,0.0
42.4556,0.0
42.6056,0.0
42.7556,0.0
42.9056,0.0
43.0556,0.0
43.2056,0.0
43.3556,0.0
43.5056,0.0
43.6556,0.0
43.8056,0.0
43.9556,0.0
44.1056,0.0
44.2556,0.0
44.4056,0.0
44.5556,0.0
44.7056,0.0
44.8556,0.0
45.0056,0.0
45.1556,0.0
45.3056,0.0
45.4556,0.0
45.6056,0.0
45.7556,0.0
45.9056,0.0
46.0556,0.0
46.2056,0.0
46.3556,0.0
46.5056,0.0
46.6556,0.0
46.8056,0.0
46.9556,0.0
47.1056,0.0
47.2556,0.0
47.4056,0.0
47.5556,0.0
47.7056,0.0
47.8556,0.0
48.0056,0.0
48.1556,0.0
48.3056,0.0
48.4556,0.0
48.6056,0.0
48.7556,0.0
48.9056,0.0
49.0556,0.0
49.2056,0.0
49.3556,0.0
49.5056,0.0
49.6556,0.0
49.8056,0.0
49.9556,0.0
50.1056,0.0
50.2556,0.0
50.4056,0.0
50.5556,0.0
50.7056,0.0
50.8556,0.0
51.0056,0.0
51.1556,0.0
51.3056,0.0
51.4556,0.0
51.6056,0.0
51.7556,0.0
51.9056,0.0
52.0556,0.0
52.2056,0.0
52.3556,0.0
52.5056,0.0
52.6556,0.0
52.8056,0.0
52.9556,0.0
53.1056,0.0
53.2556,0.0
53.4056,0.0
53.5556,0.0
53.7056,0.0
53.8556,0.0
54.0056,0.0
54.1556,0.0
54.3056,0.0
54.4556,0.0
54.6056,0.0
54.7556,0.0
54.9056,0.0
55.0556,0.0
55.2056,0.0
55.3556,0.0
55.5056,0.0
55.6556,0.0
55.8056,0.0
55.9556,0.0
56.1056,0.0
56.2556,0.0
56.4056,0.0
56.5556,0.0
56.7056,0.0
56.8556,0.0
57.0056,0.0
57.1556,0.0
57.3056,0.0
57.4556,0.0
57.6056,0.0
57.7556,0.0
57.9056,0.0
58.0556,0.0
58.2056,0.0
58.3556,0.0
58.5056,0.0
58.6556,0.0
58.8056,0.0
58.9556,0.0
59.1056,0.0
59.2556,0.0
59.4056,0.0
59.5556,0.0
59.7056,0.0
59.8556,0.0
60.0056,0.0
60.1556,0.0
60.3056,0.0
60.4556,0.0
60.6056,0.0
60.7556,0.0
60.9056,0.0
61.0556,0.0
61.2056,0.0
61.3556,0.0
61.5056,0.0
61.6556,0.0
61.8056,0.0
61.9556,0.0
62.1056,0.0
62.2556,0.0
62.4056,0.0
62.5556,0.0
62.7056,0.0
62.8556,0.0
63.0056,0.0
63.1556,0.0
63.3056,0.0
63.4556,0.0
63.6056,0.0
63.7556,5e-324
63.9056,7.91217e-314
64.0556,1.25597e-303
64.2056,1.34901e-293
64.3556,9.8041e-284
64.5056,4.82117e-274
64.6556,1.60417e-264
64.8056,3.61163e-255
64.9556,5.50186e-246
65.1056,5.67112e-237
65.2556,3.95533e-228
65.4056,1.86659e-219
65.5556,5.96033e-211
65.7056,1.28779e-202
65.8556,1.88267e-194
66.0056,1.86232e-186
66.1556,1.2465e-178
66.3056,5.64521e-171
66.4556,1.72991e-163
66.6056,3.58691e-156
66.7556,5.03235e-149
66.9056,4.77722e-142
67.0556,3.06855e-135
67.2056,1.33366e-128
67.3556,3.92203e-122
67.5056,7.80422e-116
67.6556,1.05076e-109
67.8056,9.57258e-104
67.9556,5.90078e-98
68.1056,2.46118e-92
68.2556,6.94594e-87
68.4056,1.32639e-81
68.5556,1.71383e-76
68.7056,1.49836e-71
68.8556,8.86379e-67
69.0056,3.54794e-62
69.1556,9.60917e-58
69.3056,1.76096e-53
69.4556,2.18357e-49
69.6056,1.83206e-45
69.7556,1.04007e-41
69.9056,3.99523e-38
70.0556,1.03842e-34
70.2056,1.82625e-31
70.3556,2.1732e-28
70.5056,1.74982e-25
70.6556,9.53326e-23
70.8056,3.51433e-20
70.9556,8.76591e-18
71.1056,1.47947e-15
71.2556,1.68954e-13
71.4056,1.30552e-11
71.5556,6.82579e-10
71.7056,2.41477e-08
71.8556,5.78034e-07
72.0056,9.36233e-06
72.1556,0.000102605
72.3056,0.000760863
72.4556,0.00381767
72.6056,0.0129612
72.7556,0.0297744
72.9056,0.0462803
73.0556,0.0486747
73.2056,0.0346389
73.3556,0.0166793
73.5056,0.00543433
73.6556,0.00119803
73.8056,0.000178707
73.8556,8.68964e-05