File: kim_2002/xrd/curve_1_fit.dat
32.4056,0.00516216
32.5556,0.00594347
32.7056,0.00691627
32.8556,0.00814855
33.0056,0.00974128
33.1556,0.0118497
33.3056,0.0147221
33.4556,0.0187759
33.6056,0.0247559
33.7556,0.0340959
33.9056,0.0498413
34.0556,0.0793756
34.2056,0.144238
34.3556,0.325987
34.5056,0.997763
34.6556,1.35708
34.8056,0.440235
34.9556,0.178375
35.1056,0.093103
35.2556,0.0565757
35.4056,0.0378644
35.5556,0.0270675
35.7056,0.0202925
35.8556,0.0157694
36.0056,0.0126026
36.1556,0.0103004
36.3056,0.00857501
36.4556,0.00724887
36.6056,0.00620782
36.7556,0.00537571
36.9056,0.00470021
37.0556,0.00414437
37.2056,0.00368154
37.3556,0.00329207
37.5056,0.00296125
37.6556,0.00267788
37.8056,0.0024333
37.9556,0.00222075
38.1056,0.00203486
38.2556,0.00187137
38.4056,0.00172681
38.5556,0.00159837
38.7056,0.00148374
38.8556,0.00138101
39.0056,0.00128859
39.1556,0.00120514
39.3056,0.00112955
39.4556,0.00106084
39.6056,0.000998223
39.7556,0.000940986
39.9056,0.000888534
40.0556,0.000840348
40.2056,0.000795977
40.3556,0.000755029
40.5056,0.000717161
40.6556,0.000682071
40.8056,0.000649495
40.9556,0.000619198
41.1056,0.000590972
41.2556,0.000564633
41.4056,0.000540016
41.5556,0.000516975
41.7056,0.000495377
41.8556,0.000475105
42.0056,0.000456052
42.1556,0.000438122
42.3056,0.000421229
42.4556,0.000405295
42.6056,0.000390248
42.7556,0.000376024
42.9056,0.000362563
43.0556,0.000349812
43.2056,0.000337722
43.3556,0.000326249
43.5056,0.00031535
43.6556,0.000304988
43.8056,0.000295129
43.9556,0.00028574
44.1056,0.000276792
44.2556,0.000268258
44.4056,0.000260113
44.5556,0.000252333
44.7056,0.000244897
44.8556,0.000237784
45.0056,0.000230977
45.1556,0.000224459
45.3056,0.000218212
45.4556,0.000212223
45.6056,0.000206477
45.7556,0.000200961
45.9056,0.000195663
46.0556,0.000190572
46.2056,0.000185677
46.3556,0.000180968
46.5056,0.000176436
46.6556,0.000172072
46.8056,0.000167869
46.9556,0.000163817
47.1056,0.00015991
47.2556,0.000156142
47.4056,0.000152505
47.5556,0.000148993
47.7056,0.000145602
47.8556,0.000142325
48.0056,0.000139157
48.1556,0.000136094
48.3056,0.000133131
48.4556,0.000130264
48.6056,0.000127488
48.7556,0.0001248
48.9056,0.000122197
49.0556,0.000119674
49.2056,0.000117228
49.3556,0.000114856
49.5056,0.000112556
49.6556,0.000110324
49.8056,0.000108158
49.9556,0.000106055
50.1056,0.000104013
50.2556,0.000102029
50.4056,0.000100101
50.5556,9.82279e-05
50.7056,9.64065e-05
50.8556,9.46353e-05
51.0056,9.29125e-05
51.1556,9.12363e-05
51.3056,8.96051e-05
51.4556,8.80172e-05
51.6056,8.64711e-05
51.7556,8.49655e-05
51.9056,8.34988e-05
52.0556,8.20698e-05
52.2056,8.06771e-05
52.3556,7.93196e-05
52.5056,7.79961e-05
52.6556,7.67054e-05
52.8056,7.54465e-05
52.9556,7.42183e-05
53.1056,7.30199e-05
53.2556,7.18503e-05
53.4056,7.07085e-05
53.5556,6.95938e-05
53.7056,6.85052e-05
53.8556,6.74419e-05
54.0056,6.64032e-05
54.1556,6.53884e-05
54.3056,6.43966e-05
54.4556,6.34272e-05
54.6056,6.24795e-05
54.7556,6.15529e-05
54.9056,6.06468e-05
55.0556,5.97605e-05
55.2056,5.88936e-05
55.3556,5.80453e-05
55.5056,5.72153e-05
55.6556,5.64029e-05
55.8056,5.56077e-05
55.9556,5.48292e-05
56.1056,5.40669e-05
56.2556,5.33205e-05
56.4056,5.25893e-05
56.5556,5.18732e-05
56.7056,5.11715e-05
56.8556,5.0484e-05
57.0056,4.98102e-05
57.1556,4.91499e-05
57.3056,4.85026e-05
57.4556,4.7868e-05
57.6056,4.72457e-05
57.7556,4.66355e-05
57.9056,4.60371e-05
58.0556,4.54501e-05
58.2056,4.48743e-05
58.3556,4.43093e-05
58.5056,4.3755e-05
58.6556,4.3211e-05
58.8056,4.2677e-05
58.9556,4.21529e-05
59.1056,4.16384e-05
59.2556,4.11333e-05
59.4056,4.06373e-05
59.5556,4.01502e-05
59.7056,3.96718e-05
59.8556,3.92019e-05
60.0056,3.87403e-05
60.1556,3.82869e-05
60.3056,3.78413e-05
60.4556,3.74035e-05
60.6056,3.69732e-05
60.7556,3.65503e-05
60.9056,3.61346e-05
61.0556,3.5726e-05
61.2056,3.53242e-05
61.3556,3.49292e-05
61.5056,3.45408e-05
61.6556,3.41589e-05
61.8056,3.37832e-05
61.9556,3.34137e-05
62.1056,3.30502e-05
62.2556,3.26927e-05
62.4056,3.23409e-05
62.5556,3.19947e-05
62.7056,3.16541e-05
62.8556,3.13189e-05
63.0056,3.09889e-05
63.1556,3.06642e-05
63.3056,3.03445e-05
63.4556,3.00299e-05
63.6056,2.972e-05
63.7556,2.9415e-05
63.9056,2.91146e-05
64.0556,2.88188e-05
64.2056,2.85275e-05
64.3556,2.82406e-05
64.5056,2.7958e-05
64.6556,2.76796e-05
64.8056,2.74054e-05
64.9556,2.71352e-05
65.1056,2.6869e-05
65.2556,2.66066e-05
65.4056,2.63481e-05
65.5556,2.60934e-05
65.7056,2.58423e-05
65.8556,2.55949e-05
66.0056,2.53509e-05
66.1556,2.51105e-05
66.3056,2.48734e-05
66.4556,2.46397e-05
66.6056,2.44093e-05
66.7556,2.41821e-05
66.9056,2.3958e-05
67.0556,2.37371e-05
67.2056,2.35191e-05
67.3556,2.33042e-05
67.5056,2.30922e-05
67.6556,2.28831e-05
67.8056,2.26768e-05
67.9556,2.24733e-05
68.1056,2.22725e-05
68.2556,2.20744e-05
68.4056,2.1879e-05
68.5556,2.16861e-05
68.7056,2.14957e-05
68.8556,2.13079e-05
69.0056,2.11225e-05
69.1556,2.09395e-05
69.3056,2.07588e-05
69.4556,2.05805e-05
69.6056,2.04045e-05
69.7556,2.02308e-05
69.9056,2.00592e-05
70.0556,1.98898e-05
70.2056,1.97226e-05
70.3556,1.95575e-05
70.5056,1.93944e-05
70.6556,1.92333e-05
70.8056,1.90743e-05
70.9556,1.89172e-05
71.1056,1.87621e-05
71.2556,1.86088e-05
71.4056,1.84574e-05
71.5556,1.83079e-05
71.7056,1.81602e-05
71.8556,1.80142e-05
72.0056,1.787e-05
72.1556,1.77275e-05
72.3056,1.75868e-05
72.4556,1.74477e-05
72.6056,1.73102e-05
72.7556,1.71744e-05
72.9056,1.70401e-05
73.0556,1.69074e-05
73.2056,1.67763e-05
73.3556,1.66467e-05
73.5056,1.65185e-05
73.6556,1.63919e-05
73.8056,1.62667e-05
73.8556,1.62253e-05