File: kim_2002/xrd/curve_total_fit.dat
32.4056,0.0151622
32.5556,0.0159435
32.7056,0.0169163
32.8556,0.0181485
33.0056,0.0197413
33.1556,0.0218497
33.3056,0.0247221
33.4556,0.0287759
33.6056,0.0347559
33.7556,0.0440959
33.9056,0.0598413
34.0556,0.0893756
34.2056,0.154238
34.3556,0.335987
34.5056,1.00776
34.6556,1.36708
34.8056,0.450235
34.9556,0.188375
35.1056,0.103103
35.2556,0.0665757
35.4056,0.0478644
35.5556,0.0370675
35.7056,0.0302925
35.8556,0.0257694
36.0056,0.0226026
36.1556,0.0203004
36.3056,0.018575
36.4556,0.0172489
36.6056,0.0162078
36.7556,0.0153757
36.9056,0.0147002
37.0556,0.0141444
37.2056,0.0136815
37.3556,0.0132921
37.5056,0.0129613
37.6556,0.0126779
37.8056,0.0124333
37.9556,0.0122207
38.1056,0.0120349
38.2556,0.0118714
38.4056,0.0117268
38.5556,0.0115984
38.7056,0.0114837
38.8556,0.011381
39.0056,0.0112886
39.1556,0.0112051
39.3056,0.0111295
39.4556,0.0110608
39.6056,0.0109982
39.7556,0.010941
39.9056,0.0108885
40.0556,0.0108403
40.2056,0.010796
40.3556,0.010755
40.5056,0.0107172
40.6556,0.0106821
40.8056,0.0106495
40.9556,0.0106192
41.1056,0.010591
41.2556,0.0105646
41.4056,0.01054
41.5556,0.010517
41.7056,0.0104954
41.8556,0.0104751
42.0056,0.0104561
42.1556,0.0104381
42.3056,0.0104212
42.4556,0.0104053
42.6056,0.0103902
42.7556,0.010376
42.9056,0.0103626
43.0556,0.0103498
43.2056,0.0103377
43.3556,0.0103262
43.5056,0.0103153
43.6556,0.010305
43.8056,0.0102951
43.9556,0.0102857
44.1056,0.0102768
44.2556,0.0102683
44.4056,0.0102601
44.5556,0.0102523
44.7056,0.0102449
44.8556,0.0102378
45.0056,0.010231
45.1556,0.0102245
45.3056,0.0102182
45.4556,0.0102122
45.6056,0.0102065
45.7556,0.010201
45.9056,0.0101957
46.0556,0.0101906
46.2056,0.0101857
46.3556,0.010181
46.5056,0.0101764
46.6556,0.0101721
46.8056,0.0101679
46.9556,0.0101638
47.1056,0.0101599
47.2556,0.0101561
47.4056,0.0101525
47.5556,0.010149
47.7056,0.0101456
47.8556,0.0101423
48.0056,0.0101392
48.1556,0.0101361
48.3056,0.0101331
48.4556,0.0101303
48.6056,0.0101275
48.7556,0.0101248
48.9056,0.0101222
49.0556,0.0101197
49.2056,0.0101172
49.3556,0.0101149
49.5056,0.0101126
49.6556,0.0101103
49.8056,0.0101082
49.9556,0.0101061
50.1056,0.010104
50.2556,0.010102
50.4056,0.0101001
50.5556,0.0100982
50.7056,0.0100964
50.8556,0.0100946
51.0056,0.0100929
51.1556,0.0100912
51.3056,0.0100896
51.4556,0.010088
51.6056,0.0100865
51.7556,0.010085
51.9056,0.0100835
52.0556,0.0100821
52.2056,0.0100807
52.3556,0.0100793
52.5056,0.010078
52.6556,0.0100767
52.8056,0.0100754
52.9556,0.0100742
53.1056,0.010073
53.2556,0.0100719
53.4056,0.0100707
53.5556,0.0100696
53.7056,0.0100685
53.8556,0.0100674
54.0056,0.0100664
54.1556,0.0100654
54.3056,0.0100644
54.4556,0.0100634
54.6056,0.0100625
54.7556,0.0100616
54.9056,0.0100606
55.0556,0.0100598
55.2056,0.0100589
55.3556,0.010058
55.5056,0.0100572
55.6556,0.0100564
55.8056,0.0100556
55.9556,0.0100548
56.1056,0.0100541
56.2556,0.0100533
56.4056,0.0100526
56.5556,0.0100519
56.7056,0.0100512
56.8556,0.0100505
57.0056,0.0100498
57.1556,0.0100491
57.3056,0.0100485
57.4556,0.0100479
57.6056,0.0100472
57.7556,0.0100466
57.9056,0.010046
58.0556,0.0100455
58.2056,0.0100449
58.3556,0.0100443
58.5056,0.0100438
58.6556,0.0100432
58.8056,0.0100427
58.9556,0.0100422
59.1056,0.0100416
59.2556,0.0100411
59.4056,0.0100406
59.5556,0.0100402
59.7056,0.0100397
59.8556,0.0100392
60.0056,0.0100387
60.1556,0.0100383
60.3056,0.0100378
60.4556,0.0100374
60.6056,0.010037
60.7556,0.0100366
60.9056,0.0100361
61.0556,0.0100357
61.2056,0.0100353
61.3556,0.0100349
61.5056,0.0100345
61.6556,0.0100342
61.8056,0.0100338
61.9556,0.0100334
62.1056,0.0100331
62.2556,0.0100327
62.4056,0.0100323
62.5556,0.010032
62.7056,0.0100317
62.8556,0.0100313
63.0056,0.010031
63.1556,0.0100307
63.3056,0.0100303
63.4556,0.01003
63.6056,0.0100297
63.7556,0.0100294
63.9056,0.0100291
64.0556,0.0100288
64.2056,0.0100285
64.3556,0.0100282
64.5056,0.010028
64.6556,0.0100277
64.8056,0.0100274
64.9556,0.0100271
65.1056,0.0100269
65.2556,0.0100266
65.4056,0.0100263
65.5556,0.0100261
65.7056,0.0100258
65.8556,0.0100256
66.0056,0.0100254
66.1556,0.0100251
66.3056,0.0100249
66.4556,0.0100246
66.6056,0.0100244
66.7556,0.0100242
66.9056,0.010024
67.0556,0.0100237
67.2056,0.0100235
67.3556,0.0100233
67.5056,0.0100231
67.6556,0.0100229
67.8056,0.0100227
67.9556,0.0100225
68.1056,0.0100223
68.2556,0.0100221
68.4056,0.0100219
68.5556,0.0100217
68.7056,0.0100215
68.8556,0.0100213
69.0056,0.0100211
69.1556,0.0100209
69.3056,0.0100208
69.4556,0.0100206
69.6056,0.0100204
69.7556,0.0100202
69.9056,0.0100201
70.0556,0.0100199
70.2056,0.0100197
70.3556,0.0100196
70.5056,0.0100194
70.6556,0.0100192
70.8056,0.0100191
70.9556,0.0100189
71.1056,0.0100188
71.2556,0.0100186
71.4056,0.0100185
71.5556,0.0100183
71.7056,0.0100182
71.8556,0.0100186
72.0056,0.0100272
72.1556,0.0101203
72.3056,0.0107785
72.4556,0.0138351
72.6056,0.0229785
72.7556,0.0397916
72.9056,0.0562974
73.0556,0.0586916
73.2056,0.0446556
73.3556,0.0266959
73.5056,0.0154508
73.6556,0.0112144
73.8056,0.010195
73.8556,0.0101031