File: kim_2002/xrd/xrd.csv
32.0069, 0.0213647
32.605, 0.0176232
32.993, 0.0178013
33.3526, 0.0151288
33.7364, 0.0183715
33.9614, 0.019583
34.1109, 0.0315204
34.1999, 0.0450613
34.2497, 0.151696
34.2497, 0.131741
34.2497, 0.111786
34.2497, 0.0918307
34.2497, 0.0718758
34.2547, 0.172524
34.2996, 0.40924
34.2996, 0.389285
34.2996, 0.36933
34.2996, 0.349375
34.2996, 0.32942
34.2996, 0.309465
34.2996, 0.28951
34.2996, 0.269555
34.2996, 0.2496
34.2996, 0.229645
34.2996, 0.20969
34.2996, 0.189735
34.3079, 0.181005
34.3494, 0.0506736
34.3743, 0.106173
34.3743, 0.0862184
34.3992, 0.153566
34.3992, 0.133611
34.3992, 0.11428
34.4159, 0.443329
34.4242, 0.683205
34.4242, 0.66325
34.4242, 0.643295
34.4242, 0.62334
34.4242, 0.603385
34.4242, 0.58343
34.4242, 0.563475
34.4242, 0.54352
34.4242, 0.523565
34.4242, 0.50361
34.4242, 0.483655
34.4242, 0.4637
34.4242, 0.340644
34.4242, 0.320689
34.4242, 0.300734
34.4242, 0.280779
34.4242, 0.260824
34.4242, 0.240869
34.4242, 0.220914
34.4242, 0.200959
34.4242, 0.181005
34.4491, 1.06089
34.4491, 1.04094
34.4491, 1.02098
34.4491, 1.00103
34.4491, 0.981074
34.4491, 0.961119
34.4491, 0.941164
34.4491, 0.921209
34.4491, 0.901254
34.4491, 0.881299
34.4491, 0.861344
34.4491, 0.821435
34.4491, 0.80148
34.4491, 0.781525
34.4491, 0.76157
34.4491, 0.741615
34.4491, 0.72166
34.4491, 0.701705
34.4491, 0.427947
34.4491, 0.407992
34.4491, 0.388037
34.4491, 0.368082
34.4491, 0.348751
34.464, 0.842429
34.4989, 1.42507
34.4989, 1.40512
34.4989, 1.38516
34.4989, 1.36521
34.4989, 1.34525
34.4989, 1.3253
34.4989, 1.30534
34.4989, 1.28539
34.4989, 1.26543
34.4989, 1.24548
34.4989, 1.22552
34.4989, 1.20557
34.4989, 1.18561
34.4989, 1.16566
34.4989, 1.1457
34.4989, 1.12575
34.4989, 1.10579
34.5096, 1.44886
34.5488, 1.52111
34.5488, 1.50115
34.5488, 1.4812
34.5571, 1.46311
34.6401, 0.902709
34.6401, 0.882755
34.6401, 0.8628
34.6484, 1.54231
34.6484, 1.06277
34.6484, 1.04281
34.6484, 1.02286
34.6484, 1.0029
34.6484, 0.982945
34.6484, 0.96299
34.6484, 0.943035
34.6484, 0.92308
34.6484, 0.840766
34.6484, 0.820811
34.6484, 0.800856
34.6484, 0.780901
34.6484, 0.760946
34.6484, 0.740991
34.6484, 0.721036
34.6484, 0.701081
34.6634, 1.08397
34.6983, 1.44004
34.6983, 1.42008
34.6983, 1.40013
34.6983, 1.38017
34.6983, 1.36022
34.6983, 1.34026
34.6983, 1.32031
34.6983, 1.30035
34.6983, 1.2804
34.6983, 1.26044
34.6983, 1.24049
34.6983, 1.22053
34.6983, 1.20058
34.6983, 1.18062
34.6983, 1.16067
34.6983, 1.14071
34.6983, 1.12076
34.6983, 1.1008
34.7232, 1.5288
34.7481, 1.50988
34.7481, 1.48993
34.7481, 1.46997
34.783, 0.486565
34.798, 0.656806
34.798, 0.636851
34.798, 0.616896
34.798, 0.596941
34.798, 0.576986
34.798, 0.557031
34.798, 0.537076
34.798, 0.517121
34.798, 0.497166
34.8229, 1.06484
34.8229, 1.04489
34.8229, 1.02493
34.8229, 1.00498
34.8229, 0.985024
34.8229, 0.965069
34.8229, 0.945114
34.8229, 0.925159
34.8229, 0.905204
34.8229, 0.885249
34.8229, 0.865294
34.8229, 0.845339
34.8229, 0.825384
34.8229, 0.805429
34.8229, 0.785474
34.8229, 0.765519
34.8229, 0.745564
34.8229, 0.725609
34.8229, 0.705654
34.8229, 1.45313
34.8229, 1.43318
34.8229, 1.41322
34.8229, 1.39327
34.8229, 1.37331
34.8229, 1.35336
34.8229, 1.3334
34.8229, 1.31345
34.8229, 1.29349
34.8229, 1.27354
34.8229, 1.25358
34.8229, 1.23363
34.8229, 1.21367
34.8229, 1.19372
34.8478, 1.18374
34.8478, 1.16379
34.8478, 1.14383
34.8478, 1.12388
34.8478, 1.10392
34.8628, 0.479581
34.8976, 0.44229
34.8976, 0.422335
34.8976, 0.40238
34.8976, 0.382425
34.8976, 0.36247
34.8976, 0.342515
34.8976, 0.32256
34.8976, 0.302605
34.8976, 0.28265
34.8976, 0.262695
34.8976, 0.24274
34.8976, 0.222785
34.8976, 0.20283
34.9143, 0.464531
34.9475, 0.161673
34.9475, 0.141718
34.9475, 0.121763
34.9475, 0.101808
34.9475, 0.643711
34.9475, 0.623756
34.9475, 0.603801
34.9475, 0.583846
34.9475, 0.563891
34.9475, 0.543936
34.9475, 0.523981
34.9475, 0.504026
34.951, 0.0352025
34.9624, 0.183499
35.0123, 0.026104
35.0222, 0.220914
35.0222, 0.200959
35.0472, 0.0494264
35.097, 0.112409
35.097, 0.0924543
35.1468, 0.0210529
35.1967, 0.0400725
35.3569, 0.018514
35.71, 0.0178726
72.1283, 0.00671028
72.5146, 0.011699
72.7929, 0.0357074
72.8909, 0.0592792
73.2198, 0.0378276
73.2248, 0.05005
73.4408, 0.00910072
73.6734, 0.00359232
73.8578, 0.00889286