File: li_2014/300_xrd/curve_2_fit.dat
29.4225,0.00229372
29.4625,0.00231942
29.5025,0.00234556
29.5425,0.00237214
29.5825,0.00239918
29.6225,0.00242668
29.6625,0.00245465
29.7025,0.00248311
29.7425,0.00251207
29.7825,0.00254154
29.8225,0.00257153
29.8625,0.00260205
29.9025,0.00263311
29.9425,0.00266474
29.9825,0.00269694
30.0225,0.00272972
30.0625,0.00276311
30.1025,0.00279711
30.1425,0.00283174
30.1825,0.00286702
30.2225,0.00290296
30.2625,0.00293958
30.3025,0.0029769
30.3425,0.00301493
30.3825,0.00305369
30.4225,0.00309321
30.4625,0.00313349
30.5025,0.00317457
30.5425,0.00321646
30.5825,0.00325918
30.6225,0.00330276
30.6625,0.00334721
30.7025,0.00339257
30.7425,0.00343886
30.7825,0.0034861
30.8225,0.00353431
30.8625,0.00358353
30.9025,0.00363379
30.9425,0.00368511
30.9825,0.00373752
31.0225,0.00379106
31.0625,0.00384575
31.1025,0.00390163
31.1425,0.00395874
31.1825,0.00401711
31.2225,0.00407677
31.2625,0.00413778
31.3025,0.00420016
31.3425,0.00426396
31.3825,0.00432922
31.4225,0.00439598
31.4625,0.00446431
31.5025,0.00453423
31.5425,0.00460581
31.5825,0.00467909
31.6225,0.00475413
31.6625,0.00483098
31.7025,0.00490971
31.7425,0.00499038
31.7825,0.00507305
31.8225,0.00515778
31.8625,0.00524465
31.9025,0.00533372
31.9425,0.00542508
31.9825,0.00551881
32.0225,0.00561497
32.0625,0.00571367
32.1025,0.00581498
32.1425,0.00591901
32.1825,0.00602584
32.2225,0.00613559
32.2625,0.00624835
32.3025,0.00636424
32.3425,0.00648338
32.3825,0.00660588
32.4225,0.00673188
32.4625,0.00686151
32.5025,0.0069949
32.5425,0.00713221
32.5825,0.00727359
32.6225,0.00741921
32.6625,0.00756922
32.7025,0.00772382
32.7425,0.00788318
32.7825,0.00804752
32.8225,0.00821702
32.8625,0.00839192
32.9025,0.00857243
32.9425,0.00875882
32.9825,0.00895132
33.0225,0.00915022
33.0625,0.00935579
33.1025,0.00956834
33.1425,0.00978818
33.1825,0.0100157
33.2225,0.0102511
33.2625,0.0104949
33.3025,0.0107475
33.3425,0.0110093
33.3825,0.0112807
33.4225,0.0115622
33.4625,0.0118543
33.5025,0.0121576
33.5425,0.0124726
33.5825,0.0127999
33.6225,0.0131402
33.6625,0.0134942
33.7025,0.0138626
33.7425,0.0142462
33.7825,0.0146458
33.8225,0.0150624
33.8625,0.0154969
33.9025,0.0159503
33.9425,0.0164237
33.9825,0.0169184
34.0225,0.0174356
34.0625,0.0179767
34.1025,0.0185431
34.1425,0.0191366
34.1825,0.0197587
34.2225,0.0204113
34.2625,0.0210966
34.3025,0.0218166
34.3425,0.0225736
34.3825,0.0233704
34.4225,0.0242097
34.4625,0.0250944
34.5025,0.026028
34.5425,0.027014
34.5825,0.0280563
34.6225,0.0291594
34.6625,0.0303279
34.7025,0.031567
34.7425,0.0328825
34.7825,0.0342806
34.8225,0.0357683
34.8625,0.0373533
34.9025,0.0390441
34.9425,0.04085
34.9825,0.0427817
35.0225,0.0448508
35.0625,0.0470702
35.1025,0.0494546
35.1425,0.0520204
35.1825,0.0547857
35.2225,0.0577713
35.2625,0.0610004
35.3025,0.0644994
35.3425,0.068298
35.3825,0.0724301
35.4225,0.0769343
35.4625,0.0818545
35.5025,0.087241
35.5425,0.0931515
35.5825,0.0996523
35.6225,0.106819
35.6625,0.114741
35.7025,0.123518
35.7425,0.133268
35.7825,0.144126
35.8225,0.156248
35.8625,0.169814
35.9025,0.185032
35.9425,0.202135
35.9825,0.221392
36.0225,0.243097
36.0625,0.267574
36.1025,0.29516
36.1425,0.326191
36.1825,0.360959
36.2225,0.399665
36.2625,0.442321
36.3025,0.488638
36.3425,0.537863
36.3825,0.588611
36.4225,0.638725
36.4625,0.685248
36.5025,0.724622
36.5425,0.753162
36.5825,0.767788
36.6225,0.766783
36.6625,0.750268
36.7025,0.720168
36.7425,0.679684
36.7825,0.632519
36.8225,0.582178
36.8625,0.53152
36.9025,0.482601
36.9425,0.436716
36.9825,0.394551
37.0225,0.356349
37.0625,0.322067
37.1025,0.291489
37.1425,0.264315
37.1825,0.240207
37.2225,0.218828
37.2625,0.19986
37.3025,0.183009
37.3425,0.168013
37.3825,0.15464
37.4225,0.142687
37.4625,0.131977
37.5025,0.122357
37.5425,0.113694
37.5825,0.105874
37.6225,0.0987953
37.6625,0.0923732
37.7025,0.0865324
37.7425,0.0812078
37.7825,0.0763429
37.8225,0.071888
37.8625,0.0678001
37.9025,0.0640412
37.9425,0.0605779
37.9825,0.0573809
38.0225,0.0544244
38.0625,0.0516854
38.1025,0.0491435
38.1425,0.0467808
38.1825,0.0445812
38.2225,0.0425302
38.2625,0.040615
38.3025,0.0388242
38.3425,0.0371473
38.3825,0.035575
38.4225,0.0340991
38.4625,0.0327118
38.5025,0.0314063
38.5425,0.0301764
38.5825,0.0290164
38.6225,0.0279213
38.6625,0.0268863
38.7025,0.0259071
38.7425,0.0249799
38.7825,0.0241011
38.8225,0.0232674
38.8625,0.0224758
38.9025,0.0217235
38.9425,0.0210081
38.9825,0.0203271
39.0225,0.0196784
39.0625,0.01906
39.1025,0.0184701
39.1425,0.0179069
39.1825,0.0173689
39.2225,0.0168546
39.2625,0.0163627
39.3025,0.0158919
39.3425,0.0154409
39.3825,0.0150088
39.4225,0.0145944
39.4625,0.0141968
39.5025,0.0138152
39.5425,0.0134487
39.5825,0.0130965
39.6225,0.0127578
39.6625,0.0124321
39.7025,0.0121186
39.7425,0.0118168
39.7825,0.011526
39.8225,0.0112458
39.8625,0.0109757
39.9025,0.0107151
39.9425,0.0104636
39.9825,0.0102209
40.0225,0.00998646
40.0625,0.00975997
40.1025,0.00954107
40.1425,0.00932942
40.1825,0.00912471
40.2125,0.00897555