File: li_2014/300_xrd/curve_1_fit.dat
29.4225,0.0116335
29.4625,0.0119593
29.5025,0.012299
29.5425,0.0126534
29.5825,0.0130232
29.6225,0.0134095
29.6625,0.0138132
29.7025,0.0142354
29.7425,0.0146771
29.7825,0.0151397
29.8225,0.0156245
29.8625,0.0161329
29.9025,0.0166664
29.9425,0.0172267
29.9825,0.0178158
30.0225,0.0184354
30.0625,0.0190879
30.1025,0.0197756
30.1425,0.0205009
30.1825,0.0212668
30.2225,0.0220762
30.2625,0.0229326
30.3025,0.0238396
30.3425,0.0248013
30.3825,0.0258222
30.4225,0.0269071
30.4625,0.0280615
30.5025,0.0292916
30.5425,0.0306039
30.5825,0.032006
30.6225,0.0335061
30.6625,0.0351137
30.7025,0.0368391
30.7425,0.038694
30.7825,0.0406918
30.8225,0.0428473
30.8625,0.0451775
30.9025,0.0477015
30.9425,0.0504414
30.9825,0.0534223
31.0225,0.0566729
31.0625,0.0602266
31.1025,0.0641217
31.1425,0.0684031
31.1825,0.0731227
31.2225,0.0783418
31.2625,0.0841324
31.3025,0.0905797
31.3425,0.0977851
31.3825,0.10587
31.4225,0.114981
31.4625,0.125296
31.5025,0.137029
31.5425,0.150448
31.5825,0.16588
31.6225,0.183736
31.6625,0.20453
31.7025,0.228914
31.7425,0.257722
31.7825,0.292023
31.8225,0.333207
31.8625,0.383081
31.9025,0.444008
31.9425,0.519068
31.9825,0.612232
32.0225,0.728476
32.0625,0.873659
32.1025,1.05373
32.1425,1.27236
32.1825,1.52582
32.2225,1.7942
32.2625,2.03319
32.3025,2.17937
32.3425,2.1816
32.3825,2.03902
32.4225,1.80178
32.4625,1.53351
32.5025,1.27924
32.5425,1.05949
32.5825,0.878339
32.6225,0.732229
32.6625,0.615235
32.7025,0.521481
32.7425,0.445959
32.7825,0.384671
32.8225,0.334514
32.8625,0.293107
32.9025,0.258628
32.9425,0.229679
32.9825,0.20518
33.0225,0.184292
33.0625,0.166359
33.1025,0.150863
33.1425,0.137391
33.1825,0.125613
33.2225,0.115261
33.2625,0.106118
33.3025,0.0980054
33.3425,0.0907764
33.3825,0.0843087
33.4225,0.0785005
33.4625,0.073266
33.5025,0.0685328
33.5425,0.0642396
33.5825,0.060334
33.6225,0.056771
33.6625,0.0535121
33.7025,0.0505239
33.7425,0.0477774
33.7825,0.0452475
33.8225,0.042912
33.8625,0.0407517
33.9025,0.0387496
33.9425,0.0368907
33.9825,0.0351617
34.0225,0.0335509
34.0625,0.0320478
34.1025,0.030643
34.1425,0.0293282
34.1825,0.0280959
34.2225,0.0269394
34.2625,0.0258525
34.3025,0.0248299
34.3425,0.0238666
34.3825,0.022958
34.4225,0.0221002
34.4625,0.0212895
34.5025,0.0205224
34.5425,0.0197959
34.5825,0.0191073
34.6225,0.0184538
34.6625,0.0178332
34.7025,0.0172433
34.7425,0.0166822
34.7825,0.0161479
34.8225,0.0156388
34.8625,0.0151534
34.9025,0.0146902
34.9425,0.0142478
34.9825,0.0138251
35.0225,0.0134209
35.0625,0.0130342
35.1025,0.0126638
35.1425,0.0123091
35.1825,0.0119689
35.2225,0.0116427
35.2625,0.0113296
35.3025,0.011029
35.3425,0.0107401
35.3825,0.0104624
35.4225,0.0101954
35.4625,0.00993838
35.5025,0.00969098
35.5425,0.0094527
35.5825,0.00922308
35.6225,0.00900171
35.6625,0.00878821
35.7025,0.00858221
35.7425,0.00838336
35.7825,0.00819133
35.8225,0.00800582
35.8625,0.00782653
35.9025,0.00765319
35.9425,0.00748554
35.9825,0.00732333
36.0225,0.00716633
36.0625,0.00701432
36.1025,0.0068671
36.1425,0.00672445
36.1825,0.0065862
36.2225,0.00645217
36.2625,0.00632218
36.3025,0.00619608
36.3425,0.00607371
36.3825,0.00595492
36.4225,0.00583959
36.4625,0.00572757
36.5025,0.00561874
36.5425,0.00551297
36.5825,0.00541017
36.6225,0.00531021
36.6625,0.005213
36.7025,0.00511843
36.7425,0.0050264
36.7825,0.00493684
36.8225,0.00484964
36.8625,0.00476474
36.9025,0.00468204
36.9425,0.00460147
36.9825,0.00452297
37.0225,0.00444646
37.0625,0.00437187
37.1025,0.00429914
37.1425,0.00422821
37.1825,0.00415902
37.2225,0.00409151
37.2625,0.00402563
37.3025,0.00396133
37.3425,0.00389856
37.3825,0.00383726
37.4225,0.0037774
37.4625,0.00371893
37.5025,0.00366181
37.5425,0.00360599
37.5825,0.00355144
37.6225,0.00349811
37.6625,0.00344598
37.7025,0.003395
37.7425,0.00334514
37.7825,0.00329638
37.8225,0.00324867
37.8625,0.00320199
37.9025,0.00315631
37.9425,0.0031116
37.9825,0.00306783
38.0225,0.00302498
38.0625,0.00298302
38.1025,0.00294193
38.1425,0.00290168
38.1825,0.00286224
38.2225,0.00282361
38.2625,0.00278576
38.3025,0.00274866
38.3425,0.00271229
38.3825,0.00267664
38.4225,0.00264169
38.4625,0.00260742
38.5025,0.00257382
38.5425,0.00254085
38.5825,0.00250852
38.6225,0.0024768
38.6625,0.00244568
38.7025,0.00241514
38.7425,0.00238517
38.7825,0.00235575
38.8225,0.00232687
38.8625,0.00229852
38.9025,0.00227069
38.9425,0.00224336
38.9825,0.00221652
39.0225,0.00219015
39.0625,0.00216426
39.1025,0.00213882
39.1425,0.00211383
39.1825,0.00208927
39.2225,0.00206513
39.2625,0.00204142
39.3025,0.00201811
39.3425,0.00199519
39.3825,0.00197267
39.4225,0.00195052
39.4625,0.00192874
39.5025,0.00190733
39.5425,0.00188627
39.5825,0.00186556
39.6225,0.00184519
39.6625,0.00182515
39.7025,0.00180543
39.7425,0.00178603
39.7825,0.00176694
39.8225,0.00174816
39.8625,0.00172967
39.9025,0.00171148
39.9425,0.00169357
39.9825,0.00167594
40.0225,0.00165859
40.0625,0.0016415
40.1025,0.00162467
40.1425,0.00160811
40.1825,0.00159179
40.2125,0.00157972