File: li_2014/300_xrd/curve_total_fit.dat
29.4225,2.56394
29.4625,2.5643
29.5025,2.56467
29.5425,2.56505
29.5825,2.56545
29.6225,2.56587
29.6625,2.56631
29.7025,2.56676
29.7425,2.56724
29.7825,2.56774
29.8225,2.56826
29.8625,2.56881
29.9025,2.56938
29.9425,2.56999
29.9825,2.57062
30.0225,2.57129
30.0625,2.57199
30.1025,2.57273
30.1425,2.57351
30.1825,2.57433
30.2225,2.57521
30.2625,2.57613
30.3025,2.5771
30.3425,2.57814
30.3825,2.57924
30.4225,2.5804
30.4625,2.58165
30.5025,2.58297
30.5425,2.58439
30.5825,2.5859
30.6225,2.58751
30.6625,2.58924
30.7025,2.5911
30.7425,2.5931
30.7825,2.59525
30.8225,2.59757
30.8625,2.60008
30.9025,2.60279
30.9425,2.60573
30.9825,2.60893
31.0225,2.61242
31.0625,2.61622
31.1025,2.62039
31.1425,2.62496
31.1825,2.62999
31.2225,2.63554
31.2625,2.64169
31.3025,2.64851
31.3425,2.65613
31.3825,2.66465
31.4225,2.67423
31.4625,2.68504
31.5025,2.69731
31.5425,2.71129
31.5825,2.72733
31.6225,2.74582
31.6625,2.7673
31.7025,2.79241
31.7425,2.82199
31.7825,2.8571
31.8225,2.89915
31.8625,2.94994
31.9025,3.01183
31.9425,3.08791
31.9825,3.18215
32.0225,3.29952
32.0625,3.44589
32.1025,3.62721
32.1425,3.84716
32.1825,4.10199
32.2225,4.37181
32.2625,4.61229
32.3025,4.76004
32.3425,4.76391
32.3825,4.62303
32.4225,4.38757
32.4625,4.12113
32.5025,3.86876
32.5425,3.65098
32.5825,3.47188
32.6225,3.32788
32.6625,3.21306
32.7025,3.12154
32.7425,3.04832
32.7825,2.9894
32.8225,2.94167
32.8625,2.90274
32.9025,2.8708
32.9425,2.84443
32.9825,2.82257
33.0225,2.80436
33.0625,2.78915
33.1025,2.77642
33.1425,2.76574
33.1825,2.75678
33.2225,2.74928
33.2625,2.743
33.3025,2.73777
33.3425,2.73343
33.3825,2.72985
33.4225,2.72693
33.4625,2.72458
33.5025,2.72272
33.5425,2.72127
33.5825,2.72019
33.6225,2.71941
33.6625,2.71891
33.7025,2.71863
33.7425,2.71854
33.7825,2.71862
33.8225,2.71882
33.8625,2.71914
33.9025,2.71955
33.9425,2.72002
33.9825,2.72054
34.0225,2.72109
34.0625,2.72167
34.1025,2.72225
34.1425,2.72282
34.1825,2.72338
34.2225,2.72392
34.2625,2.72443
34.3025,2.7249
34.3425,2.72533
34.3825,2.72571
34.4225,2.72604
34.4625,2.72632
34.5025,2.72655
34.5425,2.72672
34.5825,2.72683
34.6225,2.72688
34.6625,2.72688
34.7025,2.72683
34.7425,2.72673
34.7825,2.7266
34.8225,2.72644
34.8625,2.72627
34.9025,2.72609
34.9425,2.72591
34.9825,2.72576
35.0225,2.72565
35.0625,2.72559
35.1025,2.72561
35.1425,2.72572
35.1825,2.72596
35.2225,2.72635
35.2625,2.72691
35.3025,2.72769
35.3425,2.72872
35.3825,2.73003
35.4225,2.73168
35.4625,2.73371
35.5025,2.73619
35.5425,2.73917
35.5825,2.74273
35.6225,2.74695
35.6625,2.75193
35.7025,2.75778
35.7425,2.76461
35.7825,2.77257
35.8225,2.78182
35.8625,2.79255
35.9025,2.80496
35.9425,2.8193
35.9825,2.83584
36.0225,2.85487
36.0625,2.87673
36.1025,2.90176
36.1425,2.93029
36.1825,2.96262
36.2225,2.99895
36.2625,3.0393
36.3025,3.08338
36.3425,3.13044
36.3825,3.17909
36.4225,3.22717
36.4625,3.27174
36.5025,3.30924
36.5425,3.33597
36.5825,3.34886
36.6225,3.34619
36.6625,3.32808
36.7025,3.29645
36.7425,3.25452
36.7825,3.20596
36.8225,3.1543
36.8625,3.10239
36.9025,3.05228
36.9425,3.00527
36.9825,2.96203
37.0225,2.92282
37.0625,2.88758
37.1025,2.8561
37.1425,2.82808
37.1825,2.80317
37.2225,2.78104
37.2625,2.76136
37.3025,2.74385
37.3425,2.72824
37.3825,2.71428
37.4225,2.70179
37.4625,2.69057
37.5025,2.68048
37.5425,2.67137
37.5825,2.66314
37.6225,2.65568
37.6625,2.6489
37.7025,2.64273
37.7425,2.6371
37.7825,2.63195
37.8225,2.62723
37.8625,2.62289
37.9025,2.61891
37.9425,2.61523
37.9825,2.61184
38.0225,2.6087
38.0625,2.60579
38.1025,2.6031
38.1425,2.60059
38.1825,2.59826
38.2225,2.59608
38.2625,2.59405
38.3025,2.59215
38.3425,2.59038
38.3825,2.58871
38.4225,2.58715
38.4625,2.58568
38.5025,2.5843
38.5425,2.583
38.5825,2.58178
38.6225,2.58062
38.6625,2.57953
38.7025,2.5785
38.7425,2.57752
38.7825,2.57659
38.8225,2.57571
38.8625,2.57488
38.9025,2.57409
38.9425,2.57333
38.9825,2.57261
39.0225,2.57193
39.0625,2.57128
39.1025,2.57066
39.1425,2.57006
39.1825,2.56949
39.2225,2.56895
39.2625,2.56843
39.3025,2.56793
39.3425,2.56746
39.3825,2.567
39.4225,2.56656
39.4625,2.56614
39.5025,2.56573
39.5425,2.56534
39.5825,2.56497
39.6225,2.56461
39.6625,2.56426
39.7025,2.56393
39.7425,2.56361
39.7825,2.5633
39.8225,2.563
39.8625,2.56271
39.9025,2.56243
39.9425,2.56216
39.9825,2.5619
40.0225,2.56165
40.0625,2.5614
40.1025,2.56117
40.1425,2.56094
40.1825,2.56072
40.2125,2.56056