File: li_2014/300_xrd/xrd.csv
29.0743, 2.56134
29.4225, 2.56001
29.8134, 2.56409
30.1832, 2.58068
30.5744, 2.59251
30.9433, 2.61838
31.3069, 2.66436
31.6274, 2.74197
31.8391, 2.7431
31.8569, 2.83218
31.9719, 2.91642
32.0025, 3.74874
32.0274, 3.95369
32.0338, 3.14348
32.0407, 3.00198
32.0519, 3.29912
32.054, 3.66157
32.067, 3.08968
32.095, 3.21192
32.1006, 4.0933
32.1064, 4.56466
32.1107, 3.37592
32.1114, 4.18838
32.1272, 3.46637
32.128, 4.31837
32.1495, 3.56734
32.2722, 4.71663
32.4848, 4.51725
32.524, 3.61129
32.5745, 3.54632
32.5746, 4.3224
32.5801, 3.47151
32.6043, 3.26574
32.6137, 3.40434
32.6159, 3.33677
32.6331, 3.19228
32.7127, 3.12262
32.7732, 3.03754
32.833, 2.95395
32.9481, 2.88796
33.1657, 2.8334
33.4968, 2.77638
33.5025, 2.82372
33.8349, 2.75961
34.0986, 2.78653
34.3375, 2.74511
34.4671, 2.80643
34.7081, 2.75286
34.9148, 2.80512
35.1236, 2.74859
35.2771, 2.81491
35.513, 2.78189
35.6649, 2.83795
35.8855, 2.82066
35.9799, 2.89701
36.2039, 2.99937
36.2111, 2.91595
36.2818, 3.07923
36.3746, 3.1805
36.5004, 3.32541
36.5692, 3.23371
36.6999, 3.08055
36.7511, 3.34301
36.8051, 3.27632
36.8421, 3.20378
36.863, 3.09116
36.8787, 3.14031
36.9422, 3.00173
37.0116, 2.89909
37.0909, 2.82192
37.2638, 2.75172
37.4882, 2.68524
37.5226, 2.75647
37.8263, 2.63526
38.1784, 2.61448
38.3828, 2.57049
38.731, 2.57742
39.0967, 2.55665
39.4824, 2.54989
39.8738, 2.55055
40.22, 2.5464