File: mohanta_2013/100nm/raman/curve_1_fit.dat
511.395,0.0209612
511.795,0.0214889
512.195,0.0220243
512.595,0.0225672
512.995,0.0231176
513.395,0.0236754
513.795,0.0242404
514.195,0.0248126
514.595,0.0253917
514.995,0.0259777
515.395,0.0265705
515.795,0.0271698
516.195,0.0277755
516.595,0.0283875
516.995,0.0290055
517.395,0.0296294
517.795,0.0302589
518.195,0.0308939
518.595,0.0315342
518.995,0.0321795
519.395,0.0328296
519.795,0.0334842
520.195,0.0341432
520.595,0.0348062
520.995,0.0354731
521.395,0.0361434
521.795,0.036817
522.195,0.0374935
522.595,0.0381727
522.995,0.0388543
523.395,0.0395379
523.795,0.0402232
524.195,0.0409099
524.595,0.0415977
524.995,0.0422863
525.395,0.0429752
525.795,0.0436642
526.195,0.0443528
526.595,0.0450408
526.995,0.0457278
527.395,0.0464134
527.795,0.0470971
528.195,0.0477788
528.595,0.0484578
528.995,0.049134
529.395,0.0498068
529.795,0.0504759
530.195,0.0511409
530.595,0.0518015
530.995,0.0524571
531.395,0.0531074
531.795,0.053752
532.195,0.0543905
532.595,0.0550225
532.995,0.0556476
533.395,0.0562654
533.795,0.0568755
534.195,0.0574775
534.595,0.058071
534.995,0.0586557
535.395,0.059231
535.795,0.0597967
536.195,0.0603523
536.595,0.0608975
536.995,0.0614318
537.395,0.0619551
537.795,0.0624667
538.195,0.0629665
538.595,0.063454
538.995,0.063929
539.395,0.064391
539.795,0.0648397
540.195,0.0652749
540.595,0.0656961
540.995,0.0661032
541.395,0.0664958
541.795,0.0668735
542.195,0.0672362
542.595,0.0675836
542.995,0.0679153
543.395,0.0682312
543.795,0.0685311
544.195,0.0688146
544.595,0.0690816
544.995,0.069332
545.395,0.0695654
545.795,0.0697817
546.195,0.0699808
546.595,0.0701625
546.995,0.0703266
547.395,0.0704731
547.795,0.0706018
548.195,0.0707127
548.595,0.0708056
548.995,0.0708805
549.395,0.0709372
549.795,0.0709759
550.195,0.0709964
550.595,0.0709958
550.995,0.0709434
551.395,0.0708309
551.795,0.0706587
552.195,0.0704272
552.595,0.0701369
552.995,0.0697887
553.395,0.0693833
553.795,0.0689219
554.195,0.0684055
554.595,0.0678354
554.995,0.0672131
555.395,0.06654
555.795,0.0658179
556.195,0.0650485
556.595,0.0642335
556.995,0.0633751
557.395,0.0624751
557.795,0.0615357
558.195,0.0605591
558.595,0.0595474
558.995,0.0585031
559.395,0.0574283
559.795,0.0563256
560.195,0.0551972
560.595,0.0540455
560.995,0.0528731
561.395,0.0516823
561.795,0.0504754
562.195,0.049255
562.595,0.0480234
562.995,0.0467828
563.395,0.0455357
563.795,0.0442843
564.195,0.0430308
564.595,0.0417774
564.995,0.040526
565.395,0.0392789
565.795,0.0380379
566.195,0.0368048
566.595,0.0355816
566.995,0.0343698
567.395,0.0331712
567.795,0.0319873
568.195,0.0308195
568.595,0.0296692
568.995,0.0285376
569.395,0.0274258
569.795,0.0263351
570.195,0.0252663
570.595,0.0242204
570.995,0.0231981
571.395,0.0222001
571.795,0.021227
572.195,0.0202794
572.595,0.0193576
572.995,0.0184622
573.395,0.0175932
573.795,0.0167509
574.195,0.0159354
574.595,0.0151468
574.995,0.014385
575.395,0.0136499
575.795,0.0129414
576.195,0.0122593
576.595,0.0116033
576.995,0.0109731
577.395,0.0103684
577.795,0.00978865
578.195,0.0092335
578.595,0.00870245
578.995,0.008195
579.395,0.0077106
579.795,0.00724868
580.195,0.00680866
580.595,0.00638993
580.995,0.00599187
581.395,0.00561385
581.795,0.00525522
582.195,0.00491533
582.595,0.00459353
582.995,0.00428916
583.395,0.00400156
583.795,0.00373009
584.195,0.00347408
584.595,0.0032329
584.995,0.00300592
585.395,0.0027925
585.795,0.00259204
586.195,0.00240393
586.595,0.00222759
586.995,0.00206243
587.395,0.00190789
587.795,0.00176344
588.195,0.00162855
588.595,0.0015027
588.995,0.0013854
589.395,0.00127617
589.795,0.00117456
590.195,0.00108013
590.595,0.000992443
590.995,0.000911104
591.395,0.000835722
591.795,0.000765927
592.195,0.000701367
592.595,0.000641704
592.995,0.000586619
593.395,0.000535808
593.795,0.000488984
594.195,0.000445873
594.595,0.000406218
594.995,0.000369777
595.395,0.00033632
595.795,0.00030563
596.195,0.000277506
596.595,0.000251756
596.995,0.000228202
597.395,0.000206677
597.795,0.000187023
598.195,0.000169095
598.595,0.000152755
598.995,0.000137878
599.395,0.000124344
599.795,0.000112044
600.195,0.000100875
600.595,9.07421e-05
600.995,8.15581e-05
601.395,7.32414e-05
601.795,6.57171e-05
602.195,5.89158e-05
602.595,5.27736e-05
602.995,4.72318e-05
603.395,4.2236e-05
603.795,3.77367e-05
604.195,3.36881e-05
604.595,3.00484e-05
604.995,2.67792e-05
605.295,2.45492e-05