File: mohanta_2013/100nm/raman/curve_total_fit.dat
511.395,0.328439
511.795,0.329084
512.195,0.329738
512.595,0.330402
512.995,0.331076
513.395,0.331761
513.795,0.332455
514.195,0.333159
514.595,0.333873
514.995,0.334596
515.395,0.33533
515.795,0.336073
516.195,0.336826
516.595,0.337588
516.995,0.33836
517.395,0.339141
517.795,0.339931
518.195,0.34073
518.595,0.341539
518.995,0.342356
519.395,0.343183
519.795,0.344018
520.195,0.344861
520.595,0.345713
520.995,0.346574
521.395,0.347443
521.795,0.34832
522.195,0.349204
522.595,0.350097
522.995,0.350998
523.395,0.351906
523.795,0.352822
524.195,0.353744
524.595,0.354675
524.995,0.355612
525.395,0.356556
525.795,0.357507
526.195,0.358465
526.595,0.35943
526.995,0.360401
527.395,0.361378
527.795,0.362362
528.195,0.363352
528.595,0.364349
528.995,0.365351
529.395,0.36636
529.795,0.367374
530.195,0.368395
530.595,0.369422
530.995,0.370455
531.395,0.371494
531.795,0.372539
532.195,0.37359
532.595,0.374648
532.995,0.375712
533.395,0.376783
533.795,0.377861
534.195,0.378945
534.595,0.380037
534.995,0.381137
535.395,0.382244
535.795,0.38336
536.195,0.384484
536.595,0.385617
536.995,0.38676
537.395,0.387914
537.795,0.389078
538.195,0.390253
538.595,0.391441
538.995,0.392641
539.395,0.393856
539.795,0.395086
540.195,0.396331
540.595,0.397594
540.995,0.398875
541.395,0.400175
541.795,0.401497
542.195,0.402841
542.595,0.40421
542.995,0.405605
543.395,0.407028
543.795,0.408482
544.195,0.409968
544.595,0.411489
544.995,0.413048
545.395,0.414648
545.795,0.41629
546.195,0.41798
546.595,0.419721
546.995,0.421515
547.395,0.423368
547.795,0.425283
548.195,0.427266
548.595,0.429321
548.995,0.431453
549.395,0.433669
549.795,0.435975
550.195,0.438377
550.595,0.44088
550.995,0.44346
551.395,0.446117
551.795,0.448861
552.195,0.451701
552.595,0.454647
552.995,0.457711
553.395,0.460905
553.795,0.464241
554.195,0.467734
554.595,0.471398
554.995,0.475248
555.395,0.479301
555.795,0.483574
556.195,0.488084
556.595,0.49285
556.995,0.49789
557.395,0.503224
557.795,0.508871
558.195,0.514849
558.595,0.521177
558.995,0.527872
559.395,0.534949
559.795,0.542421
560.195,0.550297
560.595,0.558581
560.995,0.567272
561.395,0.576363
561.795,0.585834
562.195,0.595659
562.595,0.605795
562.995,0.616188
563.395,0.626767
563.795,0.63744
564.195,0.648101
564.595,0.658621
564.995,0.668853
565.395,0.678635
565.795,0.68779
566.195,0.696133
566.595,0.703478
566.995,0.709643
567.395,0.714462
567.795,0.717791
568.195,0.719519
568.595,0.719571
568.995,0.717445
569.395,0.712229
569.795,0.70409
570.195,0.693349
570.595,0.680419
570.995,0.665763
571.395,0.649856
571.795,0.633149
572.195,0.616048
572.595,0.5989
572.995,0.581988
573.395,0.565527
573.795,0.549677
574.195,0.534545
574.595,0.520199
574.995,0.506671
575.395,0.493968
575.795,0.482079
576.195,0.47098
576.595,0.460636
576.995,0.451008
577.395,0.442054
577.795,0.433731
578.195,0.425996
578.595,0.418807
578.995,0.412123
579.395,0.405906
579.795,0.400121
580.195,0.394735
580.595,0.389716
580.995,0.385036
581.395,0.380669
581.795,0.37659
582.195,0.372778
582.595,0.369213
582.995,0.365874
583.395,0.362746
583.795,0.359813
584.195,0.357059
584.595,0.354473
584.995,0.352043
585.395,0.349756
585.795,0.347603
586.195,0.345574
586.595,0.343661
586.995,0.341856
587.395,0.340151
587.795,0.338541
588.195,0.337018
588.595,0.335576
588.995,0.334212
589.395,0.332918
589.795,0.331692
590.195,0.330529
590.595,0.329424
590.995,0.328375
591.395,0.327378
591.795,0.326429
592.195,0.325526
592.595,0.324666
592.995,0.323847
593.395,0.323065
593.795,0.32232
594.195,0.321608
594.595,0.320928
594.995,0.320278
595.395,0.319657
595.795,0.319063
596.195,0.318494
596.595,0.317949
596.995,0.317426
597.395,0.316925
597.795,0.316445
598.195,0.315983
598.595,0.31554
598.995,0.315114
599.395,0.314705
599.795,0.314311
600.195,0.313933
600.595,0.313568
600.995,0.313216
601.395,0.312878
601.795,0.312551
602.195,0.312236
602.595,0.311932
602.995,0.311639
603.395,0.311355
603.795,0.311082
604.195,0.310817
604.595,0.310561
604.995,0.310313
605.295,0.310133