File: mohanta_2013/100nm/raman/curve_2_fit.dat
511.395,0.0084333
511.795,0.00854973
512.195,0.00866856
512.595,0.00878988
512.995,0.00891373
513.395,0.0090402
513.795,0.00916937
514.195,0.00930129
514.595,0.00943606
514.995,0.00957376
515.395,0.00971446
515.795,0.00985827
516.195,0.0100053
516.595,0.0101555
516.995,0.0103092
517.395,0.0104663
517.795,0.0106271
518.195,0.0107915
518.595,0.0109597
518.995,0.0111318
519.395,0.011308
519.795,0.0114884
520.195,0.0116731
520.595,0.0118622
520.995,0.0120559
521.395,0.0122544
521.795,0.0124577
522.195,0.0126661
522.595,0.0128796
522.995,0.0130986
523.395,0.0133231
523.795,0.0135534
524.195,0.0137896
524.595,0.014032
524.995,0.0142808
525.395,0.0145361
525.795,0.0147982
526.195,0.0150675
526.595,0.015344
526.995,0.0156281
527.395,0.01592
527.795,0.0162201
528.195,0.0165286
528.595,0.0168459
528.995,0.0171723
529.395,0.0175081
529.795,0.0178536
530.195,0.0182094
530.595,0.0185757
530.995,0.0189529
531.395,0.0193416
531.795,0.0197421
532.195,0.020155
532.595,0.0205807
532.995,0.0210198
533.395,0.0214729
533.795,0.0219404
534.195,0.022423
534.595,0.0229215
534.995,0.0234363
535.395,0.0239683
535.795,0.0245183
536.195,0.0250869
536.595,0.0256751
536.995,0.0262837
537.395,0.0269136
537.795,0.0275659
538.195,0.0282416
538.595,0.0289417
538.995,0.0296675
539.395,0.0304201
539.795,0.0312009
540.195,0.0320113
540.595,0.0328526
540.995,0.0337265
541.395,0.0346345
541.795,0.0355785
542.195,0.0365602
542.595,0.0375817
542.995,0.038645
543.395,0.0397523
543.795,0.040906
544.195,0.0421085
544.595,0.0433627
544.995,0.0446712
545.395,0.0460372
545.795,0.0474639
546.195,0.0489547
546.595,0.0505132
546.995,0.0521435
547.395,0.0538497
547.795,0.0556363
548.195,0.057508
548.595,0.05947
548.995,0.0615278
549.395,0.0636871
549.795,0.0659543
550.195,0.0683359
550.595,0.0708391
550.995,0.0734716
551.395,0.0762415
551.795,0.0791574
552.195,0.0822287
552.595,0.0854651
552.995,0.0888773
553.395,0.0924764
553.795,0.0962743
554.195,0.100284
554.595,0.104518
554.995,0.10899
555.395,0.113716
555.795,0.118711
556.195,0.123991
556.595,0.129571
556.995,0.13547
557.395,0.141704
557.795,0.14829
558.195,0.155245
558.595,0.162585
558.995,0.170324
559.395,0.178476
559.795,0.187051
560.195,0.196055
560.595,0.20549
560.995,0.215354
561.395,0.225635
561.795,0.236314
562.195,0.247359
562.595,0.258727
562.995,0.270361
563.395,0.282186
563.795,0.294111
564.195,0.306025
564.595,0.317798
564.995,0.329282
565.395,0.340311
565.795,0.350707
566.195,0.360283
566.595,0.368852
566.995,0.376229
567.395,0.382246
567.795,0.386759
568.195,0.389654
568.595,0.390857
568.995,0.389863
569.395,0.385758
569.795,0.37871
570.195,0.369038
570.595,0.357154
570.995,0.34352
571.395,0.328611
571.795,0.312877
572.195,0.296724
572.595,0.280498
572.995,0.264481
573.395,0.248889
573.795,0.233881
574.195,0.219565
574.595,0.206007
574.995,0.193241
575.395,0.181273
575.795,0.170093
576.195,0.159675
576.595,0.149987
576.995,0.14099
577.395,0.132641
577.795,0.124898
578.195,0.117718
578.595,0.111059
578.995,0.104883
579.395,0.0991504
579.795,0.0938274
580.195,0.088881
580.595,0.0842808
580.995,0.0799991
581.395,0.07601
581.795,0.0722903
582.195,0.0688182
582.595,0.0655741
582.995,0.06254
583.395,0.0596995
583.795,0.0570376
584.195,0.0545405
584.595,0.0521957
584.995,0.0499917
585.395,0.0479182
585.795,0.0459656
586.195,0.0441249
586.595,0.0423884
586.995,0.0407485
587.395,0.0391986
587.795,0.0377323
588.195,0.0363441
588.595,0.0350287
588.995,0.0337813
589.395,0.0325974
589.795,0.0314728
590.195,0.0304039
590.595,0.0293871
590.995,0.0284192
591.395,0.0274971
591.795,0.0266181
592.195,0.0257797
592.595,0.0249794
592.995,0.024215
593.395,0.0234844
593.795,0.0227857
594.195,0.0221171
594.595,0.021477
594.995,0.0208638
595.395,0.020276
595.795,0.0197122
596.195,0.0191713
596.595,0.0186519
596.995,0.0181531
597.395,0.0176737
597.795,0.0172127
598.195,0.0167693
598.595,0.0163425
598.995,0.0159316
599.395,0.0155359
599.795,0.0151544
600.195,0.0147867
600.595,0.014432
600.995,0.0140898
601.395,0.0137595
601.795,0.0134405
602.195,0.0131324
602.595,0.0128346
602.995,0.0125467
603.395,0.0122683
603.795,0.011999
604.195,0.0117383
604.595,0.011486
604.995,0.0112416
605.295,0.0110634