File: mohanta_2013/100nm/raman/raman_peaks.csv
508.89, 0.337201
511.395, 0.338989
513.901, 0.338472
516.405, 0.342105
518.071, 0.349905
520.573, 0.355381
523.079, 0.356248
525.791, 0.360797
527.916, 0.367665
530.376, 0.374871
533.09, 0.375848
535.594, 0.37902
538.098, 0.382191
540.81, 0.386741
542.895, 0.392227
544.768, 0.401175
546.433, 0.410473
548.097, 0.420808
549.761, 0.429876
550.59, 0.439539
552.254, 0.449183
553.084, 0.458385
554.333, 0.463889
554.744, 0.474252
556.406, 0.487008
557.233, 0.498861
557.783, 0.508991
558.053, 0.521893
558.879, 0.535704
559.704, 0.552282
560.529, 0.567477
561.358, 0.57714
562.186, 0.587494
562.592, 0.604772
562.598, 0.596474
563.004, 0.613522
563.411, 0.629648
563.416, 0.62135
563.817, 0.646235
564.032, 0.637933
564.231, 0.651758
564.641, 0.663159
565.052, 0.673868
565.463, 0.683079
566.288, 0.699426
567.324, 0.711159
568.36, 0.723583
568.783, 0.715276
569.208, 0.705585
570.475, 0.684812
570.899, 0.675121
571.126, 0.648148
571.758, 0.639144
571.764, 0.630846
572.188, 0.621155
572.194, 0.612857
572.618, 0.603167
572.623, 0.594868
573.048, 0.585178
573.053, 0.57688
573.477, 0.567189
573.483, 0.558891
573.906, 0.550123
574.33, 0.540893
574.336, 0.532595
574.347, 0.51669
574.76, 0.522443
575.057, 0.495699
575.328, 0.506757
576.045, 0.475854
576.177, 0.486454
576.26, 0.466168
576.892, 0.457856
576.898, 0.449557
577.321, 0.441711
577.744, 0.432942
578.167, 0.425096
578.591, 0.416328
579.014, 0.407559
579.3, 0.39695
580.282, 0.386555
581.542, 0.375117
582.385, 0.364611
583.225, 0.357216
584.902, 0.347959
585.742, 0.341025
588.252, 0.335898
590.761, 0.331693
593.27, 0.327028
595.779, 0.322823
598.286, 0.321384
600.794, 0.318562
603.303, 0.313897
605.393, 0.312006